File: instrument_data/TGA/Co(phen)2(SCN)2 electromagnet RT-325-10011142022(1).csv
Filename,Co(phen)2(SCN)2 electromagnet RT-325-10011142022(1)
Instrument name,5500-0566 (192.168.10.4)
Operator,Adam K
rundate,11/14/2022
Sample name,Co(phen)2(SCN)2 electromagnet RT-325-100
proceduresegments,Equilibrate 120.00 °C; Isothermal 1.0 min; Electromagnet On 60.0 %; Equilibrate 120.00 °C; Ramp 5.00 °C/min to 325.00 °C; Ramp 5.00 °C/min to 100.00 °C; Equilibrate 100.00 °C
[File Parameters]
Run date,11/14/2022 2:53:18 PM
Trios version,5.3.0.48151
Original File Name,C:\ProgramData\TA Instruments\TRIOS\Data\CH302_B3_22_AK\Co(phen)2(SCN)2 electromagnet RT-325-10011142022(1).tri
Current File Name,C:/ProgramData/TA Instruments/TRIOS/Data/CH302_B3_22_AK/Co(phen)2(SCN)2 electromagnet RT-325-10011142022(1).tri
User at run start,CH-CBWNNF3-0721\ChemLocal
[Procedure]
Procedure Name,
Sample Name,Co(phen)2(SCN)2 electromagnet RT-325-100
Pan Number,2
Sample Mass,11.478 mg
Pan Type,Aluminum
Comments,
Project Name,Spin Crossover
Operator,Adam K
Test,Custom
Skip Weight Stabilization,False
Sample mass pre-weigh,Not Available
Stop on Gas Flow Error,No
[Signal List]
Signal #1,Time (min)
Signal #2,Temperature (°C)
Signal #3,Weight (mg)
Signal #4,Temperature Difference (°C)
Signal #5,Sample Purge (mL/min)
Signal #6,Balance Purge (mL/min)
Signal #7,Set Point Temperature (°C)
Signal #8,Power Delivered (W)
Signal #9,Ramp Rate (°C/min)
[Configuration]
Company Name,localcc
Instrument Name,5500-0566
Instrument Type,TGA5500
Serial Number,5500-0566
IP,192.168.10.4
Location of Instrument,Olin Hall Rm 364
DisplayType,TianmaV2
Sample Interval ,0.1 s/pt
Gas 1,Nitrogen
Gas 2,Air
Selected Gas Channel,1
MTGA HiRes Licensed,Yes
[Versions]
Common IDD Version,1
Cortex Version,VER 2.1.2.60
Driver,5.0.0.6
GDM Version,1.2.1.2
TouchscreenVersion,1.0.3.1795
PCU Version,1.2.0.15
Transducer Version,1.1.0.32
[Experiment Logs]
Experiment Log Entry # 1,Equilibrate Segment 120 (C) Started
Experiment Log Entry # 3,Isothermal Segment 1 min started
Experiment Log Entry # 5,"Curie Magnet Segment enable 1, 60 %"
Experiment Log Entry # 7,Equilibrate Segment 120 (C) Started
Experiment Log Entry # 9,Ramp Segment 5 C/min to 325 C Started
Experiment Log Entry # 11,Ending Experiment because user stopped
Experiment Log Entry # 13,Ending Experiment
[Method Log]
Method Log Entry # 1,Equilibrate 120 °C
Method Log Entry # 2,Isothermal 1 minutes
Method Log Entry # 3,Electromagnet On 60 %
Method Log Entry # 4,Equilibrate 120 °C
Method Log Entry # 5,(Ramp 3071) Ramp 5 °C/minute to 325 °C
[Weight Calibration]
Date Applied,7/20/2022 10:21:44 AM
Empty Pan Number,23
Empty Pan Weight,341.358 mg
Low Reference Weight Pan Number,24
Low Reference Weight,442.546 mg
High Reference Weight Pan Number,25
High Reference Weight,"1,243.774 mg"
Low Gain Meter Reading,9.9772E-006 mg/count
High Gain Meter Reading,7.9459E-005 mg/count
Low Meter Offset,31.8759 mg
High Meter Offset,613.7978 mg
[Curie Calibration]
Date Applied,8/11/2021 12:40:46 PM
Description,From 256.990 °C to 456.990 °C at 20.000°C/min
Gas Type,Nitrogen
Pan Type,Platinum (100 uL)
Source Files 1,C:\ProgramData\TA Instruments\TRIOS\Data\Nickel Calibration.tri
Source Files 2,C:\ProgramData\TA Instruments\TRIOS\Data\Alumel Calibration.tri
Measured 1,158.9083
Known 1,154.16
Measured 2,358.1255
Known 2,356.99
[step]
Isothermal 1.0 min
Time,Temperature,Weight,Weight
min,°C,mg,%
0.00,120.12,11.417,99.472
0.00,120.12,11.417,99.472
0.01,120.13,11.417,99.471
0.01,120.13,11.417,99.471
0.01,120.13,11.417,99.471
0.02,120.13,11.417,99.471
0.02,120.14,11.417,99.471
0.02,120.14,11.417,99.471
0.03,120.14,11.417,99.471
0.03,120.14,11.417,99.471
0.03,120.15,11.417,99.471
0.04,120.15,11.417,99.471
0.04,120.15,11.417,99.471
0.04,120.15,11.417,99.471
0.05,120.15,11.417,99.471
0.05,120.16,11.417,99.471
0.05,120.16,11.417,99.471
0.06,120.16,11.417,99.470
0.06,120.16,11.417,99.470
0.06,120.17,11.417,99.470
0.07,120.17,11.417,99.471
0.07,120.17,11.417,99.470
0.07,120.17,11.417,99.470
0.08,120.17,11.417,99.470
0.08,120.18,11.417,99.470
0.08,120.18,11.417,99.470
0.09,120.18,11.417,99.470
0.09,120.18,11.417,99.470
0.09,120.19,11.417,99.470
0.10,120.19,11.417,99.470
0.10,120.19,11.417,99.470
0.10,120.19,11.417,99.470
0.11,120.19,11.417,99.470
0.11,120.20,11.417,99.470
0.11,120.20,11.417,99.470
0.12,120.20,11.417,99.470
0.12,120.20,11.417,99.469
0.12,120.20,11.417,99.469
0.13,120.20,11.417,99.469
0.13,120.21,11.417,99.469
0.13,120.21,11.417,99.469
0.14,120.21,11.417,99.469
0.14,120.21,11.417,99.469
0.14,120.21,11.417,99.469
0.15,120.22,11.417,99.469
0.15,120.22,11.417,99.469
0.15,120.22,11.417,99.469
0.16,120.22,11.417,99.469
0.16,120.22,11.417,99.469
0.16,120.22,11.417,99.469
0.17,120.23,11.417,99.469
0.17,120.23,11.417,99.469
0.17,120.23,11.417,99.469
0.18,120.23,11.417,99.469
0.18,120.23,11.417,99.469
0.18,120.23,11.417,99.469
0.19,120.24,11.417,99.469
0.19,120.24,11.417,99.469
0.19,120.24,11.417,99.469
0.20,120.24,11.417,99.469
0.20,120.24,11.417,99.469
0.20,120.24,11.417,99.469
0.21,120.25,11.417,99.468
0.21,120.25,11.417,99.468
0.21,120.25,11.417,99.468
0.22,120.25,11.417,99.468
0.22,120.25,11.417,99.468
0.22,120.25,11.417,99.468
0.23,120.26,11.417,99.468
0.23,120.26,11.417,99.468
0.23,120.26,11.417,99.468
0.24,120.26,11.417,99.468
0.24,120.26,11.417,99.468
0.24,120.26,11.417,99.468
0.25,120.26,11.417,99.468
0.25,120.27,11.417,99.468
0.25,120.27,11.417,99.468
0.26,120.27,11.417,99.468
0.26,120.27,11.417,99.468
0.26,120.27,11.417,99.468
0.27,120.27,11.417,99.468
0.27,120.27,11.417,99.468
0.27,120.27,11.417,99.468
0.28,120.28,11.417,99.468
0.28,120.28,11.417,99.468
0.28,120.28,11.417,99.468
0.29,120.28,11.417,99.468
0.29,120.28,11.417,99.468
0.29,120.28,11.416,99.468
0.30,120.28,11.416,99.468
0.30,120.29,11.416,99.468
0.30,120.29,11.416,99.468
0.31,120.29,11.416,99.468
0.31,120.29,11.416,99.468
0.31,120.29,11.416,99.468
0.32,120.29,11.416,99.467
0.32,120.29,11.416,99.467
0.32,120.29,11.416,99.468
0.33,120.29,11.416,99.467
0.33,120.30,11.416,99.467
0.33,120.30,11.416,99.467
0.34,120.30,11.416,99.467
0.34,120.30,11.416,99.467
0.34,120.30,11.416,99.467
0.35,120.30,11.416,99.467
0.35,120.30,11.416,99.467
0.35,120.30,11.416,99.467
0.36,120.31,11.416,99.467
0.36,120.31,11.416,99.467
0.36,120.31,11.416,99.467
0.37,120.31,11.416,99.467
0.37,120.31,11.416,99.467
0.37,120.31,11.416,99.467
0.38,120.31,11.416,99.467
0.38,120.31,11.416,99.467
0.38,120.31,11.416,99.467
0.39,120.31,11.416,99.467
0.39,120.32,11.416,99.467
0.39,120.32,11.416,99.467
0.40,120.32,11.416,99.467
0.40,120.32,11.416,99.467
0.40,120.32,11.416,99.467
0.41,120.32,11.416,99.467
0.41,120.32,11.416,99.466
0.41,120.32,11.416,99.466
0.42,120.32,11.416,99.466
0.42,120.32,11.416,99.466
0.42,120.32,11.416,99.466
0.43,120.33,11.416,99.466
0.43,120.33,11.416,99.466
0.43,120.33,11.416,99.466
0.44,120.33,11.416,99.466
0.44,120.33,11.416,99.466
0.44,120.33,11.416,99.466
0.45,120.33,11.416,99.466
0.45,120.33,11.416,99.466
0.45,120.33,11.416,99.466
0.46,120.33,11.416,99.466
0.46,120.33,11.416,99.466
0.46,120.33,11.416,99.467
0.47,120.34,11.416,99.466
0.47,120.34,11.416,99.466
0.47,120.34,11.416,99.466
0.48,120.34,11.416,99.466
0.48,120.34,11.416,99.466
0.48,120.34,11.416,99.466
0.49,120.34,11.416,99.466
0.49,120.34,11.416,99.466
0.49,120.34,11.416,99.466
0.50,120.34,11.416,99.466
0.50,120.34,11.416,99.466
0.50,120.34,11.416,99.466
0.51,120.34,11.416,99.466
0.51,120.35,11.416,99.466
0.51,120.35,11.416,99.466
0.52,120.35,11.416,99.466
0.52,120.35,11.416,99.466
0.52,120.35,11.416,99.466
0.53,120.35,11.416,99.466
0.53,120.35,11.416,99.465
0.53,120.35,11.416,99.465
0.54,120.35,11.416,99.466
0.54,120.35,11.416,99.466
0.54,120.35,11.416,99.466
0.55,120.35,11.416,99.466
0.55,120.35,11.416,99.466
0.55,120.35,11.416,99.466
0.56,120.35,11.416,99.466
0.56,120.36,11.416,99.466
0.56,120.36,11.416,99.466
0.57,120.36,11.416,99.466
0.57,120.36,11.416,99.466
0.57,120.36,11.416,99.466
0.58,120.36,11.416,99.466
0.58,120.36,11.416,99.466
0.58,120.36,11.416,99.466
0.59,120.36,11.416,99.466
0.59,120.36,11.416,99.466
0.59,120.36,11.416,99.466
0.60,120.36,11.416,99.465
0.60,120.36,11.416,99.466
0.60,120.36,11.416,99.466
0.61,120.36,11.416,99.465
0.61,120.36,11.416,99.465
0.61,120.36,11.416,99.465
0.62,120.36,11.416,99.465
0.62,120.36,11.416,99.465
0.62,120.37,11.416,99.465
0.63,120.37,11.416,99.465
0.63,120.37,11.416,99.465
0.63,120.37,11.416,99.465
0.64,120.37,11.416,99.464
0.64,120.37,11.416,99.465
0.64,120.37,11.416,99.465
0.65,120.37,11.416,99.465
0.65,120.37,11.416,99.464
0.65,120.37,11.416,99.464
0.66,120.37,11.416,99.464
0.66,120.37,11.416,99.464
0.66,120.37,11.416,99.464
0.67,120.37,11.416,99.464
0.67,120.37,11.416,99.464
0.67,120.37,11.416,99.464
0.68,120.37,11.416,99.464
0.68,120.37,11.416,99.464
0.68,120.37,11.416,99.464
0.69,120.37,11.416,99.464
0.69,120.37,11.416,99.464
0.69,120.37,11.416,99.464
0.70,120.37,11.416,99.464
0.70,120.37,11.416,99.464
0.70,120.37,11.416,99.464
0.71,120.37,11.416,99.464
0.71,120.37,11.416,99.464
0.71,120.37,11.416,99.464
0.72,120.38,11.416,99.463
0.72,120.38,11.416,99.463
0.72,120.38,11.416,99.463
0.73,120.38,11.416,99.464
0.73,120.38,11.416,99.464
0.73,120.38,11.416,99.464
0.74,120.38,11.416,99.464
0.74,120.38,11.416,99.463
0.74,120.38,11.416,99.463
0.75,120.38,11.416,99.463
0.75,120.38,11.416,99.463
0.75,120.38,11.416,99.463
0.76,120.38,11.416,99.463
0.76,120.38,11.416,99.463
0.76,120.38,11.416,99.463
0.77,120.38,11.416,99.463
0.77,120.38,11.416,99.463
0.77,120.38,11.416,99.463
0.78,120.38,11.416,99.463
0.78,120.38,11.416,99.463
0.78,120.38,11.416,99.463
0.79,120.38,11.416,99.463
0.79,120.38,11.416,99.463
0.79,120.38,11.416,99.463
0.80,120.38,11.416,99.462
0.80,120.38,11.416,99.462
0.80,120.38,11.416,99.462
0.81,120.38,11.416,99.462
0.81,120.38,11.416,99.462
0.81,120.38,11.416,99.462
0.82,120.38,11.416,99.462
0.82,120.38,11.416,99.462
0.82,120.38,11.416,99.462
0.83,120.38,11.416,99.462
0.83,120.38,11.416,99.462
0.83,120.38,11.416,99.462
0.84,120.38,11.416,99.462
0.84,120.38,11.416,99.462
0.84,120.38,11.416,99.462
0.85,120.38,11.416,99.462
0.85,120.38,11.416,99.462
0.85,120.38,11.416,99.462
0.86,120.38,11.416,99.462
0.86,120.38,11.416,99.462
0.86,120.38,11.416,99.462
0.87,120.38,11.416,99.462
0.87,120.38,11.416,99.462
0.87,120.38,11.416,99.462
0.88,120.38,11.416,99.462
0.88,120.38,11.416,99.462
0.88,120.38,11.416,99.462
0.89,120.38,11.416,99.462
0.89,120.38,11.416,99.462
0.89,120.38,11.416,99.462
0.90,120.38,11.416,99.462
0.90,120.38,11.416,99.462
0.90,120.38,11.416,99.462
0.91,120.38,11.416,99.462
0.91,120.38,11.416,99.462
0.91,120.38,11.416,99.462
0.92,120.38,11.416,99.462
0.92,120.38,11.416,99.462
0.92,120.38,11.416,99.462
0.93,120.38,11.416,99.462
0.93,120.38,11.416,99.462
0.93,120.38,11.416,99.462
0.94,120.38,11.416,99.462
0.94,120.38,11.416,99.462
0.94,120.38,11.416,99.462
0.95,120.38,11.416,99.462
0.95,120.38,11.416,99.462
0.95,120.38,11.416,99.462
0.96,120.38,11.416,99.462
0.96,120.38,11.416,99.462
0.96,120.38,11.416,99.462
0.97,120.38,11.416,99.462
0.97,120.38,11.416,99.462
0.97,120.38,11.416,99.462
0.98,120.38,11.416,99.462
0.98,120.38,11.416,99.462
0.98,120.38,11.416,99.462
0.99,120.38,11.416,99.462
0.99,120.38,11.416,99.462
0.99,120.38,11.416,99.462
1.00,120.38,11.416,99.462
1.00,120.38,11.416,99.462

[step]
Equilibrate 120.00 °C
Time,Temperature,Weight,Weight
min,°C,mg,%
1.00,120.38,11.416,99.462
1.00,120.38,11.417,99.471
1.01,120.38,11.452,99.778
1.01,120.38,11.497,100.167
1.01,120.38,11.517,100.347
1.02,120.38,11.523,100.393
1.02,120.38,11.541,100.550
1.02,120.38,11.551,100.638
1.03,120.38,11.542,100.561
1.03,120.38,11.544,100.576
1.03,120.38,11.555,100.673
1.04,120.38,11.552,100.648
1.04,120.38,11.539,100.533
1.04,120.38,11.545,100.589
1.05,120.38,11.551,100.642
1.05,120.38,11.543,100.572
1.05,120.38,11.535,100.499
1.06,120.38,11.537,100.517
1.06,120.38,11.531,100.466
1.06,120.38,11.526,100.424
1.07,120.38,11.523,100.399
1.07,120.38,11.523,100.393
1.07,120.38,11.521,100.375
1.08,120.38,11.518,100.354
1.08,120.38,11.518,100.354
1.08,120.38,11.518,100.354
1.09,120.38,11.518,100.355
1.09,120.38,11.522,100.391
1.09,120.38,11.530,100.455
1.10,120.38,11.531,100.464
1.10,120.38,11.532,100.470
1.10,120.38,11.533,100.484
1.11,120.38,11.533,100.479
1.11,120.38,11.530,100.456
1.11,120.38,11.528,100.436
1.12,120.38,11.527,100.434
1.12,120.38,11.527,100.432
1.12,120.38,11.527,100.430
1.13,120.38,11.527,100.429
1.13,120.38,11.526,100.425
1.13,120.38,11.525,100.412
1.14,120.38,11.524,100.406
1.14,120.38,11.524,100.403
1.14,120.38,11.522,100.391
1.15,120.38,11.521,100.375
1.15,120.38,11.520,100.374
1.15,120.38,11.520,100.373
1.16,120.38,11.520,100.370
1.16,120.38,11.520,100.368
1.16,120.38,11.520,100.367
1.17,120.38,11.520,100.366
1.17,120.38,11.520,100.366
1.17,120.38,11.520,100.365
1.18,120.38,11.519,100.363
1.18,120.38,11.519,100.361
1.18,120.38,11.519,100.360
1.19,120.38,11.519,100.359
1.19,120.38,11.518,100.355
1.19,120.37,11.518,100.354
1.20,120.37,11.518,100.353
1.20,120.37,11.518,100.350
1.20,120.37,11.517,100.345
1.21,120.37,11.517,100.344
1.21,120.37,11.517,100.343
1.21,120.37,11.517,100.341
1.22,120.37,11.517,100.339
1.22,120.37,11.516,100.338
1.22,120.37,11.516,100.337
1.23,120.37,11.516,100.336
1.23,120.37,11.516,100.335
1.23,120.37,11.516,100.334
1.24,120.37,11.516,100.333
1.24,120.37,11.516,100.332
1.24,120.37,11.516,100.331
1.25,120.37,11.515,100.330
1.25,120.37,11.515,100.328
1.25,120.37,11.515,100.327
1.26,120.37,11.515,100.327
1.26,120.37,11.515,100.325
1.26,120.37,11.515,100.324
1.27,120.37,11.515,100.324
1.27,120.37,11.515,100.323
1.27,120.37,11.514,100.321
1.28,120.37,11.514,100.320
1.28,120.37,11.514,100.319
1.28,120.37,11.514,100.318
1.29,120.37,11.514,100.317
1.29,120.37,11.514,100.316
1.29,120.37,11.514,100.315
1.30,120.37,11.514,100.314
1.30,120.37,11.514,100.313
1.30,120.37,11.513,100.312
1.31,120.37,11.513,100.311
1.31,120.37,11.513,100.310
1.31,120.37,11.513,100.309
1.32,120.36,11.513,100.308
1.32,120.36,11.513,100.307
1.32,120.36,11.513,100.306
1.33,120.36,11.513,100.305
1.33,120.36,11.512,100.304
1.33,120.36,11.512,100.303
1.34,120.36,11.512,100.301
1.34,120.36,11.512,100.301
1.34,120.36,11.512,100.300
1.35,120.36,11.512,100.299
1.35,120.36,11.512,100.298
1.35,120.36,11.512,100.297
1.36,120.36,11.512,100.296
1.36,120.36,11.511,100.295
1.36,120.36,11.511,100.294
1.37,120.36,11.511,100.293
1.37,120.36,11.511,100.292
1.37,120.36,11.511,100.291
1.38,120.36,11.511,100.290
1.38,120.36,11.511,100.289
1.38,120.36,11.511,100.288
1.39,120.36,11.511,100.287
1.39,120.36,11.510,100.286
1.39,120.36,11.510,100.285
1.40,120.36,11.510,100.284
1.40,120.36,11.510,100.283
1.40,120.36,11.510,100.282
1.41,120.36,11.510,100.281
1.41,120.36,11.510,100.281
1.41,120.36,11.510,100.280
1.42,120.36,11.510,100.279
1.42,120.35,11.509,100.278
1.42,120.35,11.509,100.277
1.43,120.35,11.509,100.276
1.43,120.35,11.509,100.275
1.43,120.35,11.509,100.274
1.44,120.35,11.509,100.274
1.44,120.35,11.509,100.273
1.44,120.35,11.509,100.272
1.45,120.35,11.509,100.271
1.45,120.35,11.509,100.270
1.45,120.35,11.508,100.269
1.46,120.35,11.508,100.268
1.46,120.35,11.508,100.268
1.46,120.35,11.508,100.267
1.47,120.35,11.508,100.266
1.47,120.35,11.508,100.265
1.47,120.35,11.508,100.265
1.48,120.35,11.508,100.264
1.48,120.35,11.508,100.263
1.48,120.35,11.508,100.262
1.49,120.35,11.508,100.262
1.49,120.35,11.508,100.261
1.49,120.35,11.507,100.260
1.50,120.35,11.507,100.259
1.50,120.35,11.507,100.259
1.50,120.35,11.507,100.258
1.51,120.34,11.507,100.258
1.51,120.34,11.507,100.257
1.51,120.34,11.507,100.256
1.52,120.34,11.507,100.255
1.52,120.34,11.507,100.254
1.52,120.34,11.507,100.254
1.53,120.34,11.507,100.253
1.53,120.34,11.507,100.252

[step]
Ramp 5.00 °C/min to 325.00 °C
Time,Temperature,Weight,Weight,Deriv. Weight
min,°C,mg,%,% / °C
1.53,120.34,11.506,100.252,1.10000
1.61,120.34,11.505,100.236,-2.48110
1.69,120.37,11.503,100.222,-0.228724
1.77,120.46,11.501,100.208,-0.109868
1.85,120.65,11.500,100.196,-0.0511986
1.93,120.92,11.499,100.184,-0.0463186
2.01,121.27,11.497,100.173,-0.0323212
2.09,121.65,11.496,100.162,-0.0266844
2.17,122.03,11.495,100.153,-0.0209590
2.25,122.42,11.494,100.143,-0.0308408
2.33,122.82,11.493,100.135,-0.0255447
2.41,123.22,11.492,100.126,-0.0293448
2.49,123.62,11.491,100.118,-0.0266704
2.57,124.02,11.490,100.110,-0.0274977
2.65,124.42,11.489,100.101,-8.68502e-3
2.73,124.82,11.488,100.092,-0.0156980
2.81,125.22,11.487,100.086,-0.0150575
2.89,125.62,11.487,100.078,-0.0225877
2.97,126.02,11.486,100.072,-0.0210086
3.05,126.43,11.485,100.065,-0.0179017
3.13,126.83,11.484,100.060,-0.0250345
3.21,127.23,11.484,100.054,-5.02934e-3
3.29,127.63,11.483,100.050,-0.0172715
3.37,128.03,11.482,100.042,-0.0120879
3.45,128.43,11.482,100.038,-0.0157310
3.53,128.83,11.481,100.033,-0.0156287
3.61,129.23,11.481,100.028,-8.89131e-3
3.69,129.63,11.480,100.022,-0.0196924
3.77,130.03,11.480,100.017,-0.0163708
3.85,130.43,11.479,100.012,-8.96026e-3
3.93,130.83,11.478,100.007,-0.0146466
4.01,131.23,11.478,100.003,-9.54961e-3
4.09,131.63,11.477,99.998,-7.51853e-3
4.17,132.03,11.477,99.993,-3.28660e-3
4.25,132.43,11.476,99.990,-8.50827e-3
4.33,132.83,11.476,99.989,-0.0177885
4.41,133.23,11.476,99.983,-0.0160458
4.49,133.63,11.475,99.979,-9.60566e-3
4.57,134.03,11.475,99.974,-0.0163100
4.65,134.43,11.474,99.971,-3.48624e-3
4.73,134.83,11.474,99.967,-3.94495e-3
4.81,135.23,11.473,99.964,-7.14876e-3
4.89,135.63,11.473,99.961,-9.18783e-3
4.97,136.02,11.473,99.957,-0.0134191
5.05,136.42,11.472,99.954,-6.59341e-3
5.13,136.82,11.472,99.951,-8.77821e-3
5.21,137.22,11.472,99.948,-7.60489e-3
5.29,137.62,11.471,99.945,-9.27070e-3
5.37,138.02,11.471,99.943,-2.84222e-3
5.45,138.42,11.471,99.940,-1.28205e-3
5.53,138.82,11.470,99.937,-8.43572e-3
5.61,139.22,11.470,99.935,-6.14326e-3
5.69,139.62,11.470,99.933,-4.30816e-3
5.77,140.02,11.470,99.931,-2.93848e-3
5.85,140.42,11.469,99.929,-4.97529e-3
5.93,140.82,11.469,99.927,-8.05861e-3
6.01,141.22,11.469,99.925,-7.31666e-3
6.09,141.62,11.469,99.922,-3.11927e-3
6.17,142.02,11.468,99.921,-2.66234e-3
6.25,142.41,11.468,99.919,3.94495e-3
6.33,142.81,11.468,99.917,-2.29183e-3
6.41,143.21,11.468,99.915,1.92422e-3
6.49,143.61,11.468,99.913,-9.34455e-3
6.57,144.01,11.467,99.912,1.37473e-3
6.65,144.41,11.467,99.911,-5.60324e-3
6.73,144.81,11.467,99.909,3.30430e-3
6.81,145.21,11.467,99.907,-0.0114469
6.89,145.61,11.467,99.906,4.31193e-3
6.97,146.01,11.467,99.905,-1.66052e-3
7.05,146.40,11.467,99.904,-3.94495e-3
7.13,146.80,11.466,99.903,-8.58674e-3
7.21,147.20,11.466,99.902,-8.70238e-3
7.29,147.60,11.466,99.901,-7.25985e-3
7.37,148.00,11.466,99.899,-1.64909e-3
7.45,148.40,11.466,99.898,-0.0127410
7.53,148.80,11.466,99.898,-6.88248e-3
7.61,149.20,11.466,99.896,-3.03164e-3
7.69,149.60,11.466,99.895,4.40367e-3
7.77,150.00,11.465,99.894,-0.0100368
7.85,150.40,11.465,99.893,4.32781e-3
7.93,150.79,11.465,99.892,-1.28131e-3
8.01,151.20,11.465,99.892,1.37112e-3
8.09,151.60,11.465,99.891,1.83581e-3
8.17,151.99,11.465,99.891,-4.31614e-3
8.25,152.39,11.465,99.890,-4.40135e-3
8.33,152.79,11.465,99.889,-3.39450e-3
8.41,153.19,11.465,99.888,-2.75397e-4
8.49,153.59,11.465,99.887,-1.00756e-3
8.57,153.99,11.465,99.887,1.27921e-3
8.65,154.39,11.464,99.886,2.92368e-3
8.73,154.79,11.464,99.885,-3.84615e-3
8.81,155.19,11.464,99.885,6.32415e-3
8.89,155.59,11.464,99.885,-8.25066e-3
8.97,155.99,11.464,99.884,-7.00532e-3
9.05,156.39,11.464,99.883,-3.03976e-3
9.13,156.79,11.464,99.883,-2.28844e-3
9.21,157.19,11.464,99.882,-2.10596e-3
9.29,157.59,11.464,99.882,-1.92934e-3
9.37,157.98,11.464,99.881,6.88687e-3
9.45,158.38,11.464,99.881,1.46789e-3
9.53,158.78,11.464,99.880,-9.15751e-5
9.61,159.18,11.464,99.879,-4.66798e-3
9.69,159.58,11.464,99.878,-3.03157e-3
9.77,159.98,11.464,99.878,-5.43424e-3
9.85,160.38,11.464,99.877,-5.50593e-4
9.93,160.78,11.463,99.877,-7.32993e-3
10.01,161.18,11.463,99.876,-8.72021e-3
10.09,161.58,11.463,99.876,1.46998e-3
10.17,161.97,11.463,99.876,3.67647e-4
10.25,162.37,11.463,99.876,5.67766e-3
10.33,162.77,11.463,99.875,-7.79083e-3
10.41,163.17,11.463,99.875,2.75452e-3
10.49,163.57,11.463,99.874,3.77014e-3
10.57,163.97,11.463,99.874,-2.66325e-3
10.65,164.37,11.463,99.874,-2.74523e-4
10.73,164.77,11.463,99.874,-1.10176e-3
10.81,165.17,11.463,99.874,5.69340e-3
10.89,165.57,11.463,99.874,-2.01835e-3
10.97,165.96,11.463,99.874,2.10623e-3
11.05,166.36,11.463,99.873,2.01848e-3
11.13,166.76,11.463,99.873,2.66281e-3
11.21,167.16,11.463,99.873,-0.0100885
11.29,167.56,11.463,99.873,-4.84631e-3
11.37,167.96,11.463,99.872,6.88073e-3
11.45,168.36,11.463,99.872,1.01049e-3
11.53,168.76,11.463,99.872,-1.19192e-3
11.61,169.16,11.463,99.872,-7.51698e-3
11.69,169.56,11.463,99.871,0.0153984
11.77,169.96,11.463,99.871,-2.29871e-3
11.85,170.36,11.463,99.871,4.58978e-3
11.93,170.76,11.463,99.872,-2.57184e-3
12.01,171.15,11.463,99.872,-5.53914e-4
12.09,171.55,11.463,99.871,-3.39285e-3
12.17,171.95,11.463,99.871,5.19245e-3
12.25,172.35,11.463,99.871,-1.73685e-3
12.33,172.75,11.463,99.871,6.91242e-3
12.41,173.15,11.463,99.871,-2.77469e-4
12.49,173.55,11.463,99.871,3.56303e-3
12.57,173.95,11.463,99.871,-1.09243e-3
12.65,174.35,11.463,99.871,-8.41827e-3
12.73,174.75,11.463,99.871,-4.58983e-4
12.81,175.15,11.463,99.871,-2.02111e-3
12.89,175.55,11.463,99.871,3.95001e-3
12.97,175.95,11.463,99.872,5.31508e-3
13.05,176.35,11.463,99.871,-1.38186e-3
13.13,176.74,11.463,99.871,-1.66086e-3
13.21,177.14,11.463,99.871,8.61995e-3
13.29,177.54,11.463,99.872,6.20528e-3
13.37,177.94,11.463,99.872,-6.24669e-3
13.45,178.34,11.463,99.872,-2.38226e-3
13.53,178.74,11.463,99.872,-3.84887e-3
13.61,179.14,11.463,99.873,-4.39560e-3
13.69,179.54,11.463,99.873,4.30897e-3
13.77,179.94,11.463,99.872,-2.74455e-4
13.85,180.34,11.463,99.872,-9.68313e-3
13.93,180.74,11.463,99.872,-6.89368e-3
14.01,181.14,11.463,99.871,6.05804e-3
14.09,181.54,11.463,99.872,0.0135482
14.17,181.94,11.463,99.871,-6.14268e-3
14.25,182.34,11.463,99.872,2.29334e-3
14.33,182.74,11.463,99.871,5.23225e-3
14.41,183.14,11.463,99.871,-6.24841e-3
14.49,183.53,11.463,99.871,-5.51707e-4
14.57,183.93,11.463,99.871,5.76859e-3
14.65,184.33,11.463,99.871,-2.69436e-7
14.73,184.73,11.463,99.871,0.0157943
14.81,185.13,11.463,99.870,9.94475e-3
14.89,185.53,11.463,99.871,-4.78306e-3
14.97,185.93,11.463,99.870,3.02510e-3
15.05,186.33,11.463,99.870,4.76768e-3
15.13,186.73,11.463,99.869,5.74818e-3
15.21,187.13,11.463,99.870,-3.20061e-3
15.29,187.53,11.463,99.870,-3.03444e-3
15.37,187.93,11.463,99.870,1.83486e-4
15.45,188.33,11.463,99.871,5.87985e-3
15.53,188.72,11.463,99.870,9.95306e-3
15.61,189.12,11.463,99.871,2.75904e-4
15.69,189.52,11.463,99.871,-4.38476e-3
15.77,189.92,11.463,99.870,3.10399e-3
15.85,190.32,11.463,99.871,5.79826e-3
15.93,190.72,11.463,99.871,-4.96966e-3
16.01,191.12,11.463,99.871,-2.09737e-3
16.09,191.52,11.463,99.871,4.93388e-3
16.17,191.92,11.463,99.871,5.51197e-3
16.25,192.32,11.463,99.871,-4.05157e-3
16.33,192.72,11.463,99.871,1.09783e-3
16.41,193.12,11.463,99.871,-2.73989e-3
16.49,193.52,11.463,99.871,-0.0106422
16.57,193.92,11.463,99.871,5.21636e-3
16.65,194.32,11.463,99.871,1.83358e-3
16.73,194.72,11.463,99.871,1.74873e-3
16.81,195.11,11.463,99.871,0.0101600
16.89,195.51,11.463,99.871,-3.57143e-3
16.97,195.91,11.463,99.871,5.23775e-3
17.05,196.31,11.463,99.871,2.75874e-3
17.13,196.71,11.463,99.871,-3.57798e-3
17.21,197.11,11.463,99.869,-3.76568e-3
17.29,197.51,11.462,99.868,-6.14423e-3
17.37,197.91,11.462,99.867,6.49392e-3
17.45,198.31,11.462,99.866,-1.28205e-3
17.53,198.71,11.462,99.866,1.00911e-3
17.61,199.11,11.462,99.866,-7.24195e-3
17.69,199.51,11.462,99.866,7.42356e-3
17.77,199.91,11.462,99.866,-4.21034e-3
17.85,200.31,11.462,99.866,7.05551e-3
17.93,200.71,11.462,99.865,-0.0136179
18.01,201.10,11.462,99.866,1.10701e-3
18.09,201.50,11.462,99.867,0.0134315
18.17,201.90,11.463,99.870,0.0102377
18.25,202.30,11.463,99.871,-1.28205e-3
18.33,202.70,11.463,99.872,5.53506e-4
18.41,203.10,11.463,99.872,7.36648e-4
18.49,203.50,11.463,99.870,2.55009e-3
18.57,203.90,11.463,99.874,-6.36222e-4
18.65,204.30,11.463,99.874,-5.31605e-3
18.73,204.70,11.463,99.873,5.76725e-3
18.81,205.10,11.463,99.873,-1.83921e-4
18.89,205.50,11.463,99.873,8.25688e-4
18.97,205.90,11.463,99.873,-6.05505e-3
19.05,206.30,11.463,99.873,-5.77982e-3
19.13,206.69,11.463,99.874,2.11114e-3
19.21,207.09,11.463,99.874,5.49952e-4
19.29,207.49,11.463,99.874,-4.94895e-3
19.37,207.89,11.463,99.874,-6.90872e-3
19.45,208.29,11.463,99.874,2.37757e-3
19.53,208.69,11.463,99.874,-3.65514e-3
19.61,209.09,11.463,99.874,7.25593e-3
19.69,209.49,11.463,99.875,-7.35294e-4
19.77,209.89,11.463,99.875,-7.06109e-3
19.85,210.29,11.463,99.875,-4.29944e-3
19.93,210.69,11.463,99.874,3.67985e-4
20.01,211.09,11.463,99.875,-1.64835e-3
20.09,211.49,11.463,99.876,-9.66851e-3
20.17,211.88,11.463,99.876,-1.92627e-3
20.25,212.28,11.463,99.876,5.36096e-3
20.33,212.69,11.463,99.875,6.02140e-3
20.41,213.09,11.463,99.875,-2.75506e-3
20.49,213.49,11.463,99.876,-6.42504e-4
20.57,213.89,11.463,99.875,-7.31154e-3
20.65,214.29,11.463,99.876,7.43898e-3
20.73,214.68,11.463,99.876,-5.77292e-3
20.81,215.09,11.463,99.875,-5.08167e-3
20.89,215.49,11.463,99.875,6.69725e-3
20.97,215.89,11.463,99.876,1.10490e-3
21.05,216.28,11.463,99.876,-4.03135e-3
21.13,216.69,11.463,99.876,9.21533e-3
21.21,217.09,11.463,99.876,-5.04257e-3
21.29,217.49,11.463,99.875,-1.00676e-3
21.37,217.89,11.463,99.875,0.0195467
21.45,218.29,11.463,99.869,-0.0195863
21.53,218.69,11.462,99.860,-6.51723e-3
21.61,219.08,11.461,99.856,-0.0186753
21.69,219.48,11.461,99.852,-6.90435e-3
21.77,219.88,11.460,99.850,-9.33617e-3
21.85,220.28,11.460,99.847,-5.48847e-4
21.93,220.68,11.460,99.847,-1.09860e-3
22.01,221.08,11.460,99.846,2.11397e-3
22.09,221.48,11.460,99.846,-4.38961e-3
22.17,221.88,11.460,99.845,7.49543e-3
22.25,222.28,11.460,99.844,-4.31193e-3
22.33,222.68,11.460,99.844,2.77606e-4
22.41,223.08,11.459,99.842,-0.0200199
22.49,223.47,11.459,99.840,-1.38122e-3