File: instrument_data/TGA/Co(phen)2(SCN)2 electromagnet RT-325-10011142022.csv
Filename,Co(phen)2(SCN)2 electromagnet RT-325-10011142022
Instrument name,5500-0566 (192.168.10.4)
Operator,Adam K
rundate,11/14/2022
Sample name,Co(phen)2(SCN)2 electromagnet RT-325-100
proceduresegments,Equilibrate 120.00 °C; Isothermal 1.0 min; Electromagnet On 100.0 %; Equilibrate 120.00 °C; Ramp 5.00 °C/min to 325.00 °C; Ramp 5.00 °C/min to 100.00 °C; Equilibrate 100.00 °C
[File Parameters]
Run date,11/14/2022 2:11:32 PM
Trios version,5.3.0.48151
Original File Name,C:\ProgramData\TA Instruments\TRIOS\Data\CH302_B3_22_AK\Co(phen)2(SCN)2 electromagnet RT-325-10011142022.tri
Current File Name,C:/ProgramData/TA Instruments/TRIOS/Data/CH302_B3_22_AK/Co(phen)2(SCN)2 electromagnet RT-325-10011142022.tri
User at run start,CH-CBWNNF3-0721\ChemLocal
[Procedure]
Procedure Name,
Sample Name,Co(phen)2(SCN)2 electromagnet RT-325-100
Pan Number,1
Sample Mass,12.230 mg
Pan Type,Aluminum
Comments,
Project Name,Spin Crossover
Operator,Adam K
Test,Custom
Skip Weight Stabilization,False
Sample mass pre-weigh,Not Available
Stop on Gas Flow Error,No
[Signal List]
Signal #1,Time (min)
Signal #2,Temperature (°C)
Signal #3,Weight (mg)
Signal #4,Temperature Difference (°C)
Signal #5,Sample Purge (mL/min)
Signal #6,Balance Purge (mL/min)
Signal #7,Set Point Temperature (°C)
Signal #8,Power Delivered (W)
Signal #9,Ramp Rate (°C/min)
[Configuration]
Company Name,localcc
Instrument Name,5500-0566
Instrument Type,TGA5500
Serial Number,5500-0566
IP,192.168.10.4
Location of Instrument,Olin Hall Rm 364
DisplayType,TianmaV2
Sample Interval ,0.1 s/pt
Gas 1,Nitrogen
Gas 2,Air
Selected Gas Channel,1
MTGA HiRes Licensed,Yes
[Versions]
Common IDD Version,1
Cortex Version,VER 2.1.2.60
Driver,5.0.0.6
GDM Version,1.2.1.2
TouchscreenVersion,1.0.3.1795
PCU Version,1.2.0.15
Transducer Version,1.1.0.32
[Experiment Logs]
Experiment Log Entry # 1,Equilibrate Segment 120 (C) Started
Experiment Log Entry # 3,Isothermal Segment 1 min started
Experiment Log Entry # 5,"Curie Magnet Segment enable 1, 100 %"
Experiment Log Entry # 7,Equilibrate Segment 120 (C) Started
Experiment Log Entry # 9,Ramp Segment 5 C/min to 325 C Started
Experiment Log Entry # 11,Ending Experiment because of critical or major error
Experiment Log Entry # 13,Curie Coil error
[Method Log]
Method Log Entry # 1,Equilibrate 120 °C
Method Log Entry # 2,Isothermal 1 minutes
Method Log Entry # 3,Electromagnet On 100 %
Method Log Entry # 4,Equilibrate 120 °C
Method Log Entry # 5,(Ramp 1884) Ramp 5 °C/minute to 325 °C
[Weight Calibration]
Date Applied,7/20/2022 10:21:44 AM
Empty Pan Number,23
Empty Pan Weight,341.358 mg
Low Reference Weight Pan Number,24
Low Reference Weight,442.546 mg
High Reference Weight Pan Number,25
High Reference Weight,"1,243.774 mg"
Low Gain Meter Reading,9.9772E-006 mg/count
High Gain Meter Reading,7.9459E-005 mg/count
Low Meter Offset,31.8759 mg
High Meter Offset,613.7978 mg
[Curie Calibration]
Date Applied,8/11/2021 12:40:46 PM
Description,From 256.990 °C to 456.990 °C at 20.000°C/min
Gas Type,Nitrogen
Pan Type,Platinum (100 uL)
Source Files 1,C:\ProgramData\TA Instruments\TRIOS\Data\Nickel Calibration.tri
Source Files 2,C:\ProgramData\TA Instruments\TRIOS\Data\Alumel Calibration.tri
Measured 1,158.9083
Known 1,154.16
Measured 2,358.1255
Known 2,356.99
[step]
Isothermal 1.0 min
Time,Temperature,Weight,Weight
min,°C,mg,%
0.00,120.11,12.182,99.609
0.00,120.11,12.182,99.609
0.01,120.12,12.182,99.609
0.01,120.12,12.182,99.610
0.01,120.12,12.182,99.609
0.02,120.12,12.182,99.609
0.02,120.13,12.182,99.609
0.02,120.13,12.182,99.609
0.03,120.13,12.182,99.609
0.03,120.13,12.182,99.610
0.03,120.14,12.182,99.609
0.04,120.14,12.182,99.610
0.04,120.14,12.182,99.610
0.04,120.14,12.182,99.610
0.05,120.14,12.182,99.610
0.05,120.15,12.182,99.610
0.05,120.15,12.182,99.610
0.06,120.15,12.182,99.610
0.06,120.15,12.182,99.609
0.06,120.16,12.182,99.609
0.07,120.16,12.182,99.609
0.07,120.16,12.182,99.609
0.07,120.16,12.182,99.609
0.08,120.17,12.182,99.609
0.08,120.17,12.182,99.609
0.08,120.17,12.182,99.609
0.09,120.17,12.182,99.609
0.09,120.17,12.182,99.609
0.09,120.18,12.182,99.608
0.10,120.18,12.182,99.608
0.10,120.18,12.182,99.608
0.10,120.18,12.182,99.608
0.11,120.18,12.182,99.608
0.11,120.19,12.182,99.608
0.11,120.19,12.182,99.608
0.12,120.19,12.182,99.608
0.12,120.19,12.182,99.608
0.12,120.19,12.182,99.608
0.13,120.20,12.182,99.608
0.13,120.20,12.182,99.607
0.13,120.20,12.182,99.607
0.14,120.20,12.182,99.607
0.14,120.20,12.182,99.607
0.14,120.21,12.182,99.607
0.15,120.21,12.182,99.607
0.15,120.21,12.182,99.607
0.15,120.21,12.182,99.607
0.16,120.21,12.182,99.607
0.16,120.22,12.182,99.607
0.16,120.22,12.182,99.607
0.17,120.22,12.182,99.607
0.17,120.22,12.182,99.607
0.17,120.22,12.182,99.606
0.18,120.22,12.182,99.606
0.18,120.23,12.182,99.607
0.18,120.23,12.182,99.607
0.19,120.23,12.182,99.607
0.19,120.23,12.182,99.607
0.19,120.23,12.182,99.607
0.20,120.23,12.182,99.606
0.20,120.24,12.182,99.606
0.20,120.24,12.182,99.606
0.21,120.24,12.182,99.606
0.21,120.24,12.182,99.606
0.21,120.24,12.182,99.606
0.22,120.24,12.182,99.606
0.22,120.25,12.182,99.606
0.22,120.25,12.182,99.606
0.23,120.25,12.182,99.606
0.23,120.25,12.182,99.606
0.23,120.25,12.182,99.606
0.24,120.25,12.182,99.606
0.24,120.26,12.182,99.606
0.24,120.26,12.182,99.606
0.25,120.26,12.182,99.606
0.25,120.26,12.182,99.606
0.25,120.26,12.182,99.606
0.26,120.26,12.182,99.606
0.26,120.26,12.182,99.606
0.26,120.27,12.182,99.606
0.27,120.27,12.182,99.606
0.27,120.27,12.182,99.606
0.27,120.27,12.182,99.605
0.28,120.27,12.182,99.605
0.28,120.27,12.182,99.605
0.28,120.27,12.182,99.605
0.29,120.27,12.182,99.605
0.29,120.28,12.182,99.605
0.29,120.28,12.182,99.605
0.30,120.28,12.182,99.605
0.30,120.28,12.182,99.605
0.30,120.28,12.182,99.605
0.31,120.28,12.182,99.605
0.31,120.28,12.182,99.605
0.31,120.28,12.181,99.605
0.32,120.29,12.181,99.605
0.32,120.29,12.181,99.604
0.32,120.29,12.181,99.604
0.33,120.29,12.181,99.604
0.33,120.29,12.181,99.604
0.33,120.29,12.181,99.604
0.34,120.29,12.181,99.604
0.34,120.29,12.181,99.604
0.34,120.29,12.181,99.604
0.35,120.30,12.181,99.604
0.35,120.30,12.181,99.604
0.35,120.30,12.181,99.604
0.36,120.30,12.181,99.604
0.36,120.30,12.181,99.604
0.36,120.30,12.181,99.604
0.37,120.30,12.181,99.604
0.37,120.30,12.181,99.604
0.37,120.30,12.181,99.604
0.38,120.30,12.181,99.604
0.38,120.31,12.181,99.604
0.38,120.31,12.181,99.604
0.39,120.31,12.181,99.604
0.39,120.31,12.181,99.604
0.39,120.31,12.181,99.604
0.40,120.31,12.181,99.604
0.40,120.31,12.181,99.604
0.40,120.31,12.181,99.604
0.41,120.31,12.181,99.604
0.41,120.31,12.181,99.604
0.41,120.31,12.181,99.604
0.42,120.32,12.181,99.604
0.42,120.32,12.181,99.604
0.42,120.32,12.181,99.604
0.43,120.32,12.181,99.604
0.43,120.32,12.181,99.604
0.43,120.32,12.181,99.604
0.44,120.32,12.181,99.604
0.44,120.32,12.181,99.604
0.44,120.32,12.181,99.604
0.45,120.32,12.181,99.604
0.45,120.32,12.181,99.604
0.45,120.33,12.181,99.603
0.46,120.33,12.181,99.603
0.46,120.33,12.181,99.603
0.46,120.33,12.181,99.603
0.47,120.33,12.181,99.603
0.47,120.33,12.181,99.603
0.47,120.33,12.181,99.603
0.48,120.33,12.181,99.603
0.48,120.33,12.181,99.603
0.48,120.33,12.181,99.603
0.49,120.33,12.181,99.603
0.49,120.33,12.181,99.603
0.49,120.33,12.181,99.603
0.50,120.34,12.181,99.603
0.50,120.34,12.181,99.603
0.50,120.34,12.181,99.603
0.51,120.34,12.181,99.603
0.51,120.34,12.181,99.604
0.51,120.34,12.181,99.604
0.52,120.34,12.181,99.603
0.52,120.34,12.181,99.603
0.52,120.34,12.181,99.604
0.53,120.34,12.181,99.603
0.53,120.34,12.181,99.603
0.53,120.34,12.181,99.603
0.54,120.34,12.181,99.603
0.54,120.34,12.181,99.603
0.54,120.34,12.181,99.603
0.55,120.35,12.181,99.603
0.55,120.35,12.181,99.603
0.55,120.35,12.181,99.603
0.56,120.35,12.181,99.603
0.56,120.35,12.181,99.604
0.56,120.35,12.181,99.604
0.57,120.35,12.181,99.604
0.57,120.35,12.181,99.604
0.57,120.35,12.181,99.604
0.58,120.35,12.181,99.604
0.58,120.35,12.181,99.604
0.58,120.35,12.181,99.604
0.59,120.35,12.181,99.603
0.59,120.35,12.181,99.603
0.59,120.35,12.181,99.603
0.60,120.35,12.181,99.603
0.60,120.35,12.181,99.603
0.60,120.35,12.181,99.603
0.61,120.35,12.181,99.603
0.61,120.36,12.181,99.603
0.61,120.36,12.181,99.603
0.62,120.36,12.181,99.603
0.62,120.36,12.181,99.603
0.62,120.36,12.181,99.603
0.63,120.36,12.181,99.602
0.63,120.36,12.181,99.602
0.63,120.36,12.181,99.602
0.64,120.36,12.181,99.603
0.64,120.36,12.181,99.603
0.64,120.36,12.181,99.603
0.65,120.36,12.181,99.603
0.65,120.36,12.181,99.603
0.65,120.36,12.181,99.603
0.66,120.36,12.181,99.603
0.66,120.36,12.181,99.603
0.66,120.36,12.181,99.603
0.67,120.36,12.181,99.603
0.67,120.36,12.181,99.603
0.67,120.36,12.181,99.603
0.68,120.36,12.181,99.603
0.68,120.36,12.181,99.603
0.68,120.36,12.181,99.603
0.69,120.36,12.181,99.603
0.69,120.37,12.181,99.602
0.69,120.37,12.181,99.602
0.70,120.37,12.181,99.602
0.70,120.37,12.181,99.602
0.70,120.37,12.181,99.602
0.71,120.37,12.181,99.602
0.71,120.37,12.181,99.602
0.71,120.37,12.181,99.602
0.72,120.37,12.181,99.602
0.72,120.37,12.181,99.602
0.72,120.37,12.181,99.602
0.73,120.37,12.181,99.602
0.73,120.37,12.181,99.602
0.73,120.37,12.181,99.602
0.74,120.37,12.181,99.602
0.74,120.37,12.181,99.602
0.74,120.37,12.181,99.602
0.75,120.37,12.181,99.602
0.75,120.37,12.181,99.602
0.75,120.37,12.181,99.602
0.76,120.37,12.181,99.602
0.76,120.37,12.181,99.602
0.76,120.37,12.181,99.602
0.77,120.37,12.181,99.601
0.77,120.37,12.181,99.601
0.77,120.37,12.181,99.601
0.78,120.37,12.181,99.601
0.78,120.37,12.181,99.601
0.78,120.37,12.181,99.601
0.79,120.37,12.181,99.601
0.79,120.37,12.181,99.601
0.79,120.37,12.181,99.601
0.80,120.37,12.181,99.601
0.80,120.37,12.181,99.601
0.80,120.37,12.181,99.601
0.81,120.37,12.181,99.601
0.81,120.37,12.181,99.600
0.81,120.37,12.181,99.600
0.82,120.38,12.181,99.600
0.82,120.38,12.181,99.600
0.82,120.38,12.181,99.600
0.83,120.38,12.181,99.600
0.83,120.38,12.181,99.600
0.83,120.38,12.181,99.600
0.84,120.38,12.181,99.600
0.84,120.38,12.181,99.600
0.84,120.38,12.181,99.599
0.85,120.38,12.181,99.599
0.85,120.38,12.181,99.599
0.85,120.38,12.181,99.599
0.86,120.38,12.181,99.599
0.86,120.38,12.181,99.599
0.86,120.38,12.181,99.599
0.87,120.38,12.181,99.599
0.87,120.38,12.181,99.599
0.87,120.38,12.181,99.599
0.88,120.38,12.181,99.599
0.88,120.38,12.181,99.599
0.88,120.38,12.181,99.599
0.89,120.38,12.181,99.599
0.89,120.38,12.181,99.599
0.89,120.38,12.181,99.599
0.90,120.38,12.181,99.599
0.90,120.38,12.181,99.599
0.90,120.38,12.181,99.599
0.91,120.38,12.181,99.599
0.91,120.38,12.181,99.599
0.91,120.38,12.181,99.599
0.92,120.38,12.181,99.599
0.92,120.38,12.181,99.599
0.92,120.38,12.181,99.599
0.93,120.38,12.181,99.599
0.93,120.38,12.181,99.599
0.93,120.38,12.181,99.599
0.94,120.38,12.181,99.599
0.94,120.38,12.181,99.599
0.94,120.38,12.181,99.599
0.95,120.38,12.181,99.598
0.95,120.38,12.181,99.598
0.95,120.38,12.181,99.598
0.96,120.38,12.181,99.598
0.96,120.38,12.181,99.598
0.96,120.38,12.181,99.598
0.97,120.38,12.181,99.598
0.97,120.38,12.181,99.598
0.97,120.38,12.181,99.598
0.98,120.38,12.181,99.598
0.98,120.38,12.181,99.598
0.98,120.38,12.181,99.598
0.99,120.38,12.181,99.598
0.99,120.38,12.181,99.598
0.99,120.38,12.181,99.598
1.00,120.38,12.181,99.597
1.00,120.38,12.181,99.597

[step]
Equilibrate 120.00 °C
Time,Temperature,Weight,Weight
min,°C,mg,%
1.00,120.38,12.181,99.597
1.00,120.38,12.277,100.389
1.01,120.38,12.414,101.509
1.01,120.38,12.527,102.431
1.01,120.38,12.601,103.034
1.02,120.38,12.641,103.363
1.02,120.38,12.663,103.541
1.02,120.38,12.670,103.602
1.03,120.37,12.675,103.636
1.03,120.37,12.675,103.641
1.03,120.37,12.674,103.628
1.04,120.37,12.675,103.639
1.04,120.37,12.673,103.626
1.04,120.37,12.673,103.624
1.05,120.37,12.672,103.612
1.05,120.37,12.670,103.602
1.05,120.37,12.671,103.606
1.06,120.37,12.670,103.603
1.06,120.37,12.670,103.600
1.06,120.37,12.669,103.588
1.07,120.37,12.667,103.572
1.07,120.37,12.668,103.584
1.07,120.37,12.667,103.577
1.08,120.37,12.666,103.569
1.08,120.37,12.667,103.575
1.08,120.37,12.665,103.557
1.09,120.37,12.665,103.560
1.09,120.37,12.665,103.557
1.09,120.37,12.663,103.544
1.10,120.37,12.663,103.542
1.10,120.37,12.664,103.547
1.10,120.37,12.664,103.552
1.11,120.37,12.661,103.529
1.11,120.37,12.662,103.533
1.11,120.37,12.663,103.544
1.12,120.37,12.661,103.526
1.12,120.37,12.662,103.536
1.12,120.37,12.661,103.527
1.13,120.37,12.659,103.511
1.13,120.37,12.659,103.509
1.13,120.37,12.660,103.514
1.14,120.37,12.659,103.513
1.14,120.37,12.658,103.505
1.14,120.37,12.657,103.491
1.15,120.37,12.656,103.488
1.15,120.37,12.656,103.487
1.15,120.37,12.657,103.490
1.16,120.37,12.656,103.488
1.16,120.37,12.657,103.491
1.16,120.37,12.656,103.485
1.17,120.37,12.656,103.480
1.17,120.37,12.655,103.473
1.17,120.37,12.655,103.473
1.18,120.37,12.654,103.469
1.18,120.37,12.654,103.470
1.18,120.37,12.654,103.466
1.19,120.37,12.653,103.462
1.19,120.37,12.653,103.459
1.19,120.37,12.653,103.458
1.20,120.37,12.652,103.456
1.20,120.37,12.652,103.453
1.20,120.37,12.652,103.451
1.21,120.37,12.651,103.447
1.21,120.37,12.651,103.443
1.21,120.37,12.651,103.440
1.22,120.37,12.650,103.438
1.22,120.37,12.650,103.436
1.22,120.37,12.650,103.435
1.23,120.37,12.650,103.432
1.23,120.37,12.649,103.431
1.23,120.37,12.649,103.428
1.24,120.37,12.649,103.426
1.24,120.37,12.649,103.424
1.24,120.37,12.648,103.422
1.25,120.37,12.648,103.422
1.25,120.37,12.648,103.420
1.25,120.37,12.648,103.419
1.26,120.37,12.648,103.418
1.26,120.37,12.648,103.418
1.26,120.37,12.648,103.416
1.27,120.37,12.647,103.415
1.27,120.37,12.647,103.414
1.27,120.37,12.647,103.412
1.28,120.36,12.647,103.411
1.28,120.36,12.647,103.410
1.28,120.36,12.647,103.409
1.29,120.36,12.647,103.408
1.29,120.36,12.647,103.407
1.29,120.36,12.646,103.406
1.30,120.36,12.646,103.405
1.30,120.36,12.646,103.404
1.30,120.36,12.646,103.403
1.31,120.36,12.646,103.400
1.31,120.36,12.645,103.399
1.31,120.36,12.645,103.397
1.32,120.36,12.645,103.395
1.32,120.36,12.645,103.392
1.32,120.36,12.644,103.390
1.33,120.36,12.644,103.388
1.33,120.36,12.644,103.387
1.33,120.36,12.644,103.384
1.34,120.36,12.644,103.383
1.34,120.36,12.643,103.382
1.34,120.36,12.643,103.378
1.35,120.36,12.643,103.375
1.35,120.36,12.642,103.374
1.35,120.36,12.642,103.370
1.36,120.36,12.642,103.368
1.36,120.36,12.642,103.367
1.36,120.36,12.641,103.365
1.37,120.36,12.641,103.364
1.37,120.36,12.641,103.362
1.37,120.36,12.641,103.361
1.38,120.36,12.641,103.359
1.38,120.36,12.640,103.356
1.38,120.36,12.640,103.354
1.39,120.36,12.640,103.353
1.39,120.36,12.640,103.351
1.39,120.35,12.639,103.349
1.40,120.35,12.639,103.348
1.40,120.35,12.639,103.346
1.40,120.35,12.639,103.344
1.41,120.35,12.639,103.342
1.41,120.35,12.638,103.340
1.41,120.35,12.638,103.338
1.42,120.35,12.638,103.336
1.42,120.35,12.638,103.334
1.42,120.35,12.637,103.332
1.43,120.35,12.637,103.330
1.43,120.35,12.637,103.328
1.43,120.35,12.637,103.326
1.44,120.35,12.636,103.324
1.44,120.35,12.636,103.322
1.44,120.35,12.636,103.320
1.45,120.35,12.636,103.318
1.45,120.35,12.635,103.315
1.45,120.35,12.635,103.313
1.46,120.35,12.635,103.311
1.46,120.35,12.634,103.308
1.46,120.35,12.634,103.306
1.47,120.35,12.634,103.305
1.47,120.35,12.634,103.303
1.47,120.34,12.634,103.301
1.48,120.34,12.633,103.299
1.48,120.34,12.633,103.297
1.48,120.34,12.633,103.294
1.49,120.34,12.632,103.291
1.49,120.34,12.632,103.288
1.49,120.34,12.632,103.286
1.50,120.34,12.631,103.284
1.50,120.34,12.631,103.282
1.50,120.34,12.631,103.279
1.51,120.34,12.631,103.277
1.51,120.34,12.630,103.275
1.51,120.34,12.630,103.273
1.52,120.34,12.630,103.270
1.52,120.34,12.629,103.267
1.52,120.34,12.629,103.265
1.53,120.34,12.629,103.263
1.53,120.34,12.629,103.262

[step]
Ramp 5.00 °C/min to 325.00 °C
Time,Temperature,Weight,Weight,Deriv. Weight
min,°C,mg,%,% / °C
1.53,120.34,12.629,103.261,4.09208
1.54,120.33,12.627,103.251,3.72376
1.56,120.33,12.626,103.239,4.01215
1.58,120.33,12.625,103.230,7.25945
1.59,120.33,12.623,103.218,7.33370
1.61,120.33,12.622,103.208,26.7666
1.62,120.33,12.621,103.198,-8.51874
1.63,120.33,12.620,103.187,-4.41404
1.65,120.33,12.618,103.176,-2.49767
1.67,120.34,12.617,103.165,-2.17281
1.68,120.35,12.615,103.152,-0.991835
1.69,120.36,12.614,103.142,-0.778377
1.71,120.37,12.613,103.130,-0.785570
1.73,120.39,12.611,103.120,-0.567652
1.74,120.40,12.610,103.110,-0.492060
1.76,120.43,12.609,103.100,-0.441353
1.77,120.45,12.608,103.090,-0.364934
1.78,120.48,12.607,103.081,-0.332732
1.80,120.51,12.605,103.071,-0.287120
1.82,120.54,12.604,103.061,-0.319357
1.83,120.58,12.603,103.051,-0.246713
1.84,120.62,12.602,103.040,-0.239893
1.86,120.66,12.600,103.031,-0.226806
1.88,120.71,12.599,103.020,-0.203451
1.89,120.76,12.598,103.011,-0.183013
1.91,120.81,12.597,103.001,-0.176097
1.92,120.87,12.596,102.992,-0.153068
1.93,120.92,12.595,102.983,-0.152529
1.95,120.99,12.593,102.973,-0.161678
1.97,121.05,12.592,102.964,-0.142476
1.98,121.12,12.591,102.955,-0.132907
1.99,121.18,12.590,102.945,-0.141782
2.01,121.25,12.589,102.936,-0.131573
2.03,121.32,12.588,102.927,-0.132074
2.04,121.39,12.587,102.918,-0.136098
2.06,121.46,12.586,102.909,-0.131096
2.07,121.54,12.584,102.900,-0.125239
2.08,121.61,12.583,102.891,-0.121432
2.10,121.68,12.582,102.882,-0.130128
2.12,121.75,12.581,102.873,-0.117187
2.13,121.82,12.580,102.865,-0.136624
2.14,121.90,12.579,102.856,-0.119378
2.16,121.97,12.578,102.847,-0.117715
2.18,122.04,12.577,102.839,-0.132688
2.19,122.11,12.576,102.830,-0.110879
2.21,122.18,12.575,102.822,-0.107648
2.22,122.26,12.574,102.813,-0.0987301
2.24,122.33,12.573,102.805,-0.110435
2.25,122.40,12.572,102.797,-0.134278
2.26,122.48,12.571,102.788,-0.105474
2.28,122.55,12.570,102.780,-0.104772
2.29,122.63,12.569,102.773,-0.104385
2.31,122.70,12.568,102.763,-0.111131
2.33,122.78,12.567,102.756,-0.101347
2.34,122.85,12.566,102.748,-0.104854
2.36,122.93,12.565,102.740,-0.104777
2.37,123.00,12.564,102.733,-0.0892840
2.39,123.08,12.563,102.725,-0.0911410
2.40,123.15,12.562,102.718,-0.0823681
2.41,123.23,12.561,102.711,-0.101195
2.43,123.30,12.560,102.703,-0.116279
2.44,123.38,12.560,102.696,-0.0816455
2.46,123.45,12.559,102.689,-0.0918375
2.48,123.53,12.558,102.683,-0.0823538
2.49,123.60,12.557,102.676,-0.0879781
2.51,123.68,12.556,102.669,-0.104077
2.52,123.75,12.555,102.662,-0.0958725
2.54,123.83,12.555,102.655,-0.0841324
2.55,123.90,12.554,102.648,-0.0899873
2.56,123.98,12.553,102.642,-0.0914161
2.58,124.06,12.552,102.635,-0.0866712
2.59,124.13,12.551,102.629,-0.0792255
2.61,124.21,12.551,102.623,-0.0833411
2.63,124.28,12.550,102.617,-0.108976
2.64,124.36,12.549,102.609,-0.0878157
2.66,124.43,12.548,102.603,-0.0746363
2.67,124.51,12.547,102.597,-0.0838371
2.69,124.58,12.547,102.590,-0.0843887
2.70,124.66,12.546,102.584,-0.0843099
2.71,124.73,12.545,102.578,-0.0731259
2.73,124.81,12.544,102.572,-0.0821482
2.74,124.88,12.544,102.566,-0.0797248
2.76,124.96,12.543,102.560,-0.0776201
2.78,125.03,12.542,102.554,-0.0805024
2.79,125.11,12.542,102.548,-0.0844082
2.81,125.18,12.541,102.543,-0.0710633
2.82,125.26,12.540,102.537,-0.0763686
2.84,125.33,12.539,102.532,-0.0788870
2.85,125.41,12.539,102.525,-0.0727441
2.86,125.48,12.538,102.520,-0.0674813
2.88,125.56,12.537,102.514,-0.0676097
2.89,125.63,12.537,102.509,-0.0867697
2.91,125.71,12.536,102.503,-0.0637882
2.93,125.78,12.535,102.498,-0.0782847
2.94,125.86,12.535,102.492,-0.0764523
2.96,125.93,12.534,102.487,-0.0740535
2.97,126.01,12.533,102.482,-0.0622313
2.99,126.08,12.533,102.477,-0.0662269
3.00,126.16,12.532,102.471,-0.0691392
3.01,126.23,12.531,102.466,-0.0695373
3.03,126.31,12.531,102.461,-0.0618301
3.04,126.38,12.530,102.456,-0.0663250
3.06,126.46,12.530,102.451,-0.0638083
3.08,126.53,12.529,102.446,-0.0686758
3.09,126.61,12.528,102.441,-0.0603908
3.11,126.68,12.528,102.436,-0.0638277
3.12,126.76,12.527,102.431,-0.0656648
3.14,126.83,12.527,102.427,-0.0685014
3.15,126.91,12.526,102.421,-0.0613995
3.16,126.98,12.525,102.417,-0.0621286
3.18,127.06,12.525,102.412,-0.0577645
3.19,127.14,12.524,102.408,-0.0717816
3.21,127.21,12.524,102.403,-0.0593775
3.23,127.28,12.523,102.399,-0.0531095
3.24,127.36,12.523,102.395,-0.0630780
3.26,127.43,12.522,102.390,-0.0679054
3.27,127.51,12.522,102.386,-0.0557183
3.29,127.58,12.521,102.382,-0.0557594
3.30,127.66,12.521,102.377,-0.0458275
3.31,127.74,12.520,102.373,-0.0531206
3.33,127.81,12.520,102.369,-0.0579079
3.34,127.89,12.519,102.365,-0.0657074
3.36,127.96,12.518,102.360,-0.0714030
3.38,128.04,12.518,102.355,-0.0478182
3.39,128.11,12.517,102.351,-0.0517492
3.41,128.19,12.517,102.347,-0.0547359
3.42,128.26,12.516,102.343,-0.0566100
3.44,128.34,12.516,102.339,-0.0444190
3.45,128.41,12.515,102.335,-0.0694182
3.46,128.49,12.515,102.331,-0.0523766
3.48,128.56,12.514,102.327,-0.0519850
3.49,128.64,12.514,102.323,-0.0538166
3.51,128.71,12.513,102.319,-0.0484432
3.53,128.79,12.513,102.315,-0.0521251
3.54,128.86,12.513,102.312,-0.0408800
3.56,128.94,12.512,102.308,-0.0579784
3.57,129.01,12.512,102.305,-0.0474527
3.59,129.09,12.511,102.301,-0.0547004
3.60,129.16,12.511,102.297,-0.0473760
3.61,129.24,12.510,102.293,-0.0543876
3.63,129.31,12.510,102.289,-0.0391856
3.64,129.39,12.509,102.285,-0.0530213
3.66,129.46,12.509,102.282,-0.0523723
3.68,129.54,12.509,102.279,-0.0466650
3.69,129.62,12.508,102.275,-0.0363337
3.71,129.69,12.508,102.272,-0.0565791
3.72,129.77,12.507,102.269,-0.0344483
3.74,129.84,12.507,102.266,-0.0551505
3.75,129.92,12.507,102.263,-0.0396929
3.76,129.99,12.506,102.259,-0.0354988
3.78,130.07,12.506,102.256,-0.0440557
3.79,130.14,12.505,102.252,-0.0497708
3.81,130.22,12.505,102.248,-0.0512659
3.83,130.29,12.504,102.245,-0.0527523
3.84,130.37,12.504,102.242,-0.0493299
3.86,130.44,12.504,102.238,-0.0533627
3.87,130.52,12.503,102.235,-0.0439801
3.89,130.59,12.503,102.231,-0.0379121
3.90,130.67,12.502,102.229,-0.0367082
3.91,130.74,12.502,102.226,-0.0290941
3.93,130.82,12.502,102.223,-0.0460288
3.94,130.89,12.501,102.219,-0.0308593
3.96,130.97,12.501,102.216,-0.0465032
3.98,131.04,12.501,102.213,-0.0298814
3.99,131.12,12.500,102.210,-0.0377149
4.01,131.19,12.500,102.208,-0.0360085
4.02,131.27,12.499,102.205,-0.0461386
4.04,131.34,12.499,102.202,-0.0371429
4.05,131.42,12.499,102.198,-0.0476308
4.06,131.49,12.498,102.196,-0.0382922
4.08,131.56,12.498,102.193,-0.0392104
4.09,131.64,12.498,102.190,-0.0441176
4.11,131.71,12.497,102.187,-0.0339635
4.13,131.79,12.497,102.184,-0.0397469
4.14,131.86,12.497,102.181,-0.0372477
4.16,131.94,12.496,102.179,-0.0337295
4.17,132.01,12.496,102.176,-0.0367555
4.19,132.09,12.496,102.173,-0.0326007
4.20,132.16,12.495,102.171,-0.0311983
4.21,132.24,12.495,102.169,-0.0308213
4.23,132.31,12.495,102.166,-0.0417954
4.24,132.39,12.494,102.163,-0.0440100
4.26,132.46,12.494,102.160,-0.0288688
4.28,132.54,12.494,102.158,-0.0381879
4.29,132.61,12.494,102.156,-0.0324383
4.30,132.69,12.493,102.154,-0.0266423
4.32,132.76,12.493,102.151,-0.0272049
4.34,132.84,12.493,102.149,-0.0336985
4.35,132.92,12.492,102.146,-0.0500641
4.36,132.99,12.492,102.143,-0.0299174
4.38,133.07,12.492,102.141,-0.0322051
4.40,133.14,12.491,102.138,-0.0377417
4.41,133.22,12.491,102.135,-0.0403305
4.43,133.29,12.491,102.133,-0.0358716
4.44,133.36,12.490,102.130,-0.0439450
4.45,133.44,12.490,102.128,-0.0320294
4.47,133.51,12.490,102.126,-0.0286080
4.49,133.59,12.490,102.123,-0.0329358
4.50,133.66,12.489,102.121,-0.0422546
4.51,133.74,12.489,102.119,-0.0292498
4.53,133.81,12.489,102.116,-0.0271370
4.55,133.89,12.488,102.114,-0.0420869
4.56,133.96,12.488,102.112,-0.0316102
4.58,134.04,12.488,102.110,-0.0295261
4.59,134.11,12.488,102.108,-0.0270642
4.60,134.19,12.487,102.105,-0.0293850
4.62,134.26,12.487,102.103,-0.0390625
4.64,134.34,12.487,102.100,-0.0245632
4.65,134.41,12.486,102.099,-0.0217435
4.66,134.49,12.486,102.097,-0.0419809
4.68,134.56,12.486,102.094,-0.0333766
4.70,134.64,12.486,102.092,-0.0301211
4.71,134.71,12.485,102.090,-0.0321422
4.73,134.79,12.485,102.087,-0.0321189
4.74,134.86,12.485,102.085,-0.0262771
4.75,134.93,12.485,102.083,-0.0231193
4.77,135.01,12.484,102.081,-0.0413544
4.79,135.08,12.484,102.079,-0.0194990
4.80,135.16,12.484,102.077,-0.0341080
4.81,135.23,12.484,102.074,-0.0303309
4.83,135.31,12.483,102.073,-0.0162619
4.85,135.39,12.483,102.071,-0.0292346
4.86,135.46,12.483,102.068,-0.0332237
4.88,135.54,12.483,102.066,-0.0133409
4.89,135.61,12.482,102.064,-0.0281536
4.90,135.69,12.482,102.062,-0.0196631
4.92,135.76,12.482,102.060,-0.0289015
4.94,135.84,12.482,102.058,-0.0319536
4.95,135.91,12.481,102.056,-0.0180466
4.96,135.99,12.481,102.054,-0.0245649
4.98,136.06,12.481,102.052,-0.0190604
5.00,136.14,12.481,102.051,-0.0139320
5.01,136.21,12.480,102.049,-0.0381864
5.03,136.29,12.480,102.047,
5.04,136.36,12.480,102.045,
5.05,136.43,12.480,102.043,
5.07,136.51,12.479,102.041,
5.09,136.58,12.479,102.040,
5.09,136.62,12.479,102.039,