File: instrument_data/TGA/Co(phen)2(SCN)2 electromagnet 150-250-1001172022.csv
Filename,Co(phen)2(SCN)2 electromagnet 150-250-1001172022
Instrument name,5500-0566 (192.168.10.4)
Operator,Adam K
rundate,11/7/2022
Sample name,Co(phen)2(SCN)2 electromagnet 150-250-100
proceduresegments,Equilibrate 120.00 °C; Isothermal 1.0 min; Electromagnet On 50.0 %; Equilibrate 150.00 °C; Ramp 5.00 °C/min to 250.00 °C; Equilibrate 250.00 °C; Ramp 10.00 °C/min to 100.00 °C; Equilibrate 100.00 °C
[File Parameters]
Run date,11/7/2022 4:45:40 PM
Trios version,5.3.0.48151
Original File Name,C:\ProgramData\TA Instruments\TRIOS\Data\CH302_B3_22_AK\Co(phen)2(SCN)2 electromagnet 150-250-1001172022.tri
Current File Name,C:/ProgramData/TA Instruments/TRIOS/Data/CH302_B3_22_AK/Co(phen)2(SCN)2 electromagnet 150-250-1001172022.tri
User at run start,CH-CBWNNF3-0721\ChemLocal
[Procedure]
Procedure Name,
Sample Name,Co(phen)2(SCN)2 electromagnet 150-250-100
Pan Number,3
Sample Mass,5.401 mg
Pan Type,Aluminum
Comments,
Project Name,Spin Crossover
Operator,Adam K
Test,Custom
Skip Weight Stabilization,False
Sample mass pre-weigh,Not Available
Stop on Gas Flow Error,No
[Signal List]
Signal #1,Time (min)
Signal #2,Temperature (°C)
Signal #3,Weight (mg)
Signal #4,Temperature Difference (°C)
Signal #5,Sample Purge (mL/min)
Signal #6,Balance Purge (mL/min)
Signal #7,Set Point Temperature (°C)
Signal #8,Power Delivered (W)
Signal #9,Ramp Rate (°C/min)
[Configuration]
Company Name,localcc
Instrument Name,5500-0566
Instrument Type,TGA5500
Serial Number,5500-0566
IP,192.168.10.4
Location of Instrument,Olin Hall Rm 364
DisplayType,TianmaV2
Sample Interval ,0.1 s/pt
Gas 1,Nitrogen
Gas 2,Air
Selected Gas Channel,1
MTGA HiRes Licensed,Yes
[Versions]
Common IDD Version,1
Cortex Version,VER 2.1.2.60
Driver,5.0.0.6
GDM Version,1.2.1.2
TouchscreenVersion,1.0.3.1795
PCU Version,1.2.0.15
Transducer Version,1.1.0.32
[Experiment Logs]
Experiment Log Entry # 1,Equilibrate Segment 120 (C) Started
Experiment Log Entry # 3,Isothermal Segment 1 min started
Experiment Log Entry # 5,"Curie Magnet Segment enable 1, 50 %"
Experiment Log Entry # 7,Equilibrate Segment 150 (C) Started
Experiment Log Entry # 9,Ramp Segment 5 C/min to 250 C Started
Experiment Log Entry # 11,Equilibrate Segment 250 (C) Started
Experiment Log Entry # 13,Ramp Segment 10 C/min to 100 C Started
Experiment Log Entry # 15,Equilibrate Segment 100 (C) Started
[Method Log]
Method Log Entry # 1,Equilibrate 120 °C
Method Log Entry # 2,Isothermal 1 minutes
Method Log Entry # 3,Electromagnet On 50 %
Method Log Entry # 4,Equilibrate 150 °C
Method Log Entry # 5,(Ramp 8343) Ramp 5 °C/minute to 250 °C
Method Log Entry # 6,Equilibrate 250 °C
Method Log Entry # 7,(Ramp 8345) Ramp 10 °C/minute to 100 °C
Method Log Entry # 8,Equilibrate 100 °C
[Weight Calibration]
Date Applied,7/20/2022 10:21:44 AM
Empty Pan Number,23
Empty Pan Weight,341.358 mg
Low Reference Weight Pan Number,24
Low Reference Weight,442.546 mg
High Reference Weight Pan Number,25
High Reference Weight,"1,243.774 mg"
Low Gain Meter Reading,9.9772E-006 mg/count
High Gain Meter Reading,7.9459E-005 mg/count
Low Meter Offset,31.8759 mg
High Meter Offset,613.7978 mg
[Curie Calibration]
Date Applied,8/11/2021 12:40:46 PM
Description,From 256.990 °C to 456.990 °C at 20.000°C/min
Gas Type,Nitrogen
Pan Type,Platinum (100 uL)
Source Files 1,C:\ProgramData\TA Instruments\TRIOS\Data\Nickel Calibration.tri
Source Files 2,C:\ProgramData\TA Instruments\TRIOS\Data\Alumel Calibration.tri
Measured 1,158.9083
Known 1,154.16
Measured 2,358.1255
Known 2,356.99
[step]
Isothermal 1.0 min
Time,Temperature,Weight,Weight
min,°C,mg,%
0.00,120.17,5.317,98.434
0.00,120.17,5.317,98.434
0.01,120.18,5.316,98.433
0.01,120.18,5.316,98.432
0.01,120.18,5.316,98.432
0.02,120.18,5.316,98.432
0.02,120.19,5.316,98.432
0.02,120.19,5.316,98.432
0.03,120.19,5.316,98.432
0.03,120.19,5.316,98.432
0.03,120.20,5.316,98.432
0.04,120.20,5.316,98.432
0.04,120.20,5.316,98.431
0.04,120.20,5.316,98.431
0.05,120.21,5.316,98.430
0.05,120.21,5.316,98.430
0.05,120.21,5.316,98.430
0.06,120.21,5.316,98.430
0.06,120.21,5.316,98.430
0.06,120.22,5.316,98.429
0.07,120.22,5.316,98.429
0.07,120.22,5.316,98.429
0.07,120.22,5.316,98.428
0.08,120.23,5.316,98.428
0.08,120.23,5.316,98.428
0.08,120.23,5.316,98.428
0.09,120.23,5.316,98.428
0.09,120.23,5.316,98.427
0.09,120.24,5.316,98.427
0.10,120.24,5.316,98.427
0.10,120.24,5.316,98.427
0.10,120.24,5.316,98.427
0.11,120.24,5.316,98.426
0.11,120.25,5.316,98.426
0.11,120.25,5.316,98.426
0.12,120.25,5.316,98.426
0.12,120.25,5.316,98.425
0.12,120.25,5.316,98.425
0.13,120.26,5.316,98.425
0.13,120.26,5.316,98.425
0.13,120.26,5.316,98.425
0.14,120.26,5.316,98.424
0.14,120.26,5.316,98.424
0.14,120.27,5.316,98.424
0.15,120.27,5.316,98.423
0.15,120.27,5.316,98.423
0.15,120.27,5.316,98.423
0.16,120.27,5.316,98.423
0.16,120.28,5.316,98.423
0.16,120.28,5.316,98.423
0.17,120.28,5.316,98.422
0.17,120.28,5.316,98.422
0.17,120.28,5.316,98.422
0.18,120.28,5.316,98.422
0.18,120.29,5.316,98.422
0.18,120.29,5.316,98.421
0.19,120.29,5.316,98.421
0.19,120.29,5.316,98.421
0.19,120.29,5.316,98.421
0.20,120.30,5.316,98.421
0.20,120.30,5.316,98.420
0.20,120.30,5.316,98.420
0.21,120.30,5.316,98.420
0.21,120.30,5.316,98.420
0.21,120.30,5.316,98.419
0.22,120.31,5.316,98.419
0.22,120.31,5.316,98.419
0.22,120.31,5.316,98.419
0.23,120.31,5.316,98.418
0.23,120.31,5.316,98.418
0.23,120.31,5.316,98.418
0.24,120.31,5.316,98.418
0.24,120.32,5.316,98.418
0.24,120.32,5.316,98.418
0.25,120.32,5.316,98.418
0.25,120.32,5.316,98.418
0.25,120.32,5.316,98.418
0.26,120.32,5.316,98.417
0.26,120.33,5.316,98.417
0.26,120.33,5.316,98.417
0.27,120.33,5.316,98.417
0.27,120.33,5.316,98.416
0.27,120.33,5.316,98.417
0.28,120.33,5.316,98.417
0.28,120.33,5.316,98.417
0.28,120.34,5.316,98.416
0.29,120.34,5.316,98.416
0.29,120.34,5.316,98.415
0.29,120.34,5.316,98.415
0.30,120.34,5.315,98.415
0.30,120.34,5.315,98.414
0.30,120.34,5.315,98.415
0.31,120.34,5.315,98.414
0.31,120.35,5.315,98.415
0.31,120.35,5.315,98.414
0.32,120.35,5.315,98.414
0.32,120.35,5.315,98.414
0.32,120.35,5.315,98.415
0.33,120.35,5.315,98.414
0.33,120.35,5.315,98.414
0.33,120.35,5.315,98.414
0.34,120.36,5.315,98.414
0.34,120.36,5.315,98.414
0.34,120.36,5.315,98.413
0.35,120.36,5.315,98.413
0.35,120.36,5.315,98.413
0.35,120.36,5.315,98.413
0.36,120.36,5.315,98.412
0.36,120.36,5.315,98.412
0.36,120.36,5.315,98.413
0.37,120.37,5.315,98.413
0.37,120.37,5.315,98.412
0.37,120.37,5.315,98.412
0.38,120.37,5.315,98.412
0.38,120.37,5.315,98.412
0.38,120.37,5.315,98.412
0.39,120.37,5.315,98.412
0.39,120.37,5.315,98.412
0.39,120.37,5.315,98.412
0.40,120.38,5.315,98.412
0.40,120.38,5.315,98.412
0.40,120.38,5.315,98.412
0.41,120.38,5.315,98.411
0.41,120.38,5.315,98.411
0.41,120.38,5.315,98.410
0.42,120.38,5.315,98.410
0.42,120.38,5.315,98.410
0.42,120.38,5.315,98.410
0.43,120.38,5.315,98.410
0.43,120.38,5.315,98.409
0.43,120.39,5.315,98.409
0.44,120.39,5.315,98.409
0.44,120.39,5.315,98.409
0.44,120.39,5.315,98.409
0.45,120.39,5.315,98.409
0.45,120.39,5.315,98.408
0.45,120.39,5.315,98.408
0.46,120.39,5.315,98.409
0.46,120.39,5.315,98.409
0.46,120.39,5.315,98.409
0.47,120.39,5.315,98.408
0.47,120.39,5.315,98.408
0.47,120.40,5.315,98.408
0.48,120.40,5.315,98.408
0.48,120.40,5.315,98.408
0.48,120.40,5.315,98.408
0.49,120.40,5.315,98.407
0.49,120.40,5.315,98.407
0.49,120.40,5.315,98.407
0.50,120.40,5.315,98.407
0.50,120.40,5.315,98.407
0.50,120.40,5.315,98.407
0.51,120.40,5.315,98.407
0.51,120.40,5.315,98.406
0.51,120.40,5.315,98.406
0.52,120.41,5.315,98.405
0.52,120.41,5.315,98.405
0.52,120.41,5.315,98.405
0.53,120.41,5.315,98.405
0.53,120.41,5.315,98.405
0.53,120.41,5.315,98.405
0.54,120.41,5.315,98.405
0.54,120.41,5.315,98.404
0.54,120.41,5.315,98.404
0.55,120.41,5.315,98.403
0.55,120.41,5.315,98.404
0.55,120.41,5.315,98.404
0.56,120.41,5.315,98.404
0.56,120.41,5.315,98.404
0.56,120.41,5.315,98.404
0.57,120.41,5.315,98.403
0.57,120.41,5.315,98.403
0.57,120.42,5.315,98.403
0.58,120.42,5.315,98.403
0.58,120.42,5.315,98.403
0.58,120.42,5.315,98.403
0.59,120.42,5.315,98.403
0.59,120.42,5.315,98.403
0.59,120.42,5.315,98.402
0.60,120.42,5.315,98.403
0.60,120.42,5.315,98.403
0.60,120.42,5.315,98.403
0.61,120.42,5.315,98.402
0.61,120.42,5.315,98.403
0.61,120.42,5.315,98.403
0.62,120.42,5.315,98.403
0.62,120.42,5.315,98.403
0.62,120.42,5.315,98.402
0.63,120.42,5.315,98.402
0.63,120.42,5.315,98.402
0.63,120.42,5.315,98.402
0.64,120.42,5.315,98.402
0.64,120.42,5.315,98.402
0.64,120.42,5.315,98.402
0.65,120.43,5.315,98.402
0.65,120.43,5.315,98.402
0.65,120.43,5.315,98.401
0.66,120.43,5.315,98.401
0.66,120.43,5.315,98.401
0.66,120.43,5.315,98.401
0.67,120.43,5.315,98.401
0.67,120.43,5.315,98.401
0.67,120.43,5.315,98.401
0.68,120.43,5.315,98.402
0.68,120.43,5.315,98.402
0.68,120.43,5.315,98.402
0.69,120.43,5.315,98.402
0.69,120.43,5.315,98.402
0.69,120.43,5.315,98.402
0.70,120.43,5.315,98.402
0.70,120.43,5.315,98.401
0.70,120.43,5.315,98.402
0.71,120.43,5.315,98.401
0.71,120.43,5.315,98.401
0.71,120.43,5.315,98.401
0.72,120.43,5.315,98.401
0.72,120.43,5.315,98.401
0.72,120.43,5.315,98.401
0.73,120.43,5.315,98.401
0.73,120.43,5.315,98.401
0.73,120.43,5.315,98.401
0.74,120.43,5.315,98.401
0.74,120.43,5.315,98.401
0.74,120.43,5.315,98.401
0.75,120.43,5.315,98.401
0.75,120.43,5.315,98.402
0.75,120.43,5.315,98.402
0.76,120.43,5.315,98.402
0.76,120.43,5.315,98.401
0.76,120.43,5.315,98.401
0.77,120.43,5.315,98.401
0.77,120.43,5.315,98.401
0.77,120.43,5.315,98.401
0.78,120.43,5.315,98.401
0.78,120.43,5.315,98.401
0.78,120.43,5.315,98.401
0.79,120.43,5.315,98.401
0.79,120.43,5.315,98.401
0.79,120.43,5.315,98.401
0.80,120.43,5.315,98.401
0.80,120.43,5.315,98.401
0.80,120.43,5.315,98.401
0.81,120.43,5.315,98.401
0.81,120.43,5.315,98.401
0.81,120.43,5.315,98.401
0.82,120.43,5.315,98.401
0.82,120.43,5.315,98.400
0.82,120.43,5.315,98.401
0.83,120.43,5.315,98.400
0.83,120.43,5.315,98.401
0.83,120.43,5.315,98.401
0.84,120.43,5.315,98.401
0.84,120.43,5.315,98.401
0.84,120.43,5.315,98.401
0.85,120.43,5.315,98.401
0.85,120.43,5.315,98.401
0.85,120.43,5.315,98.401
0.86,120.43,5.315,98.400
0.86,120.43,5.315,98.400
0.86,120.43,5.315,98.400
0.87,120.43,5.315,98.400
0.87,120.43,5.315,98.401
0.87,120.43,5.315,98.401
0.88,120.43,5.315,98.400
0.88,120.43,5.315,98.400
0.88,120.43,5.315,98.400
0.89,120.43,5.315,98.400
0.89,120.43,5.315,98.400
0.89,120.43,5.315,98.401
0.90,120.43,5.315,98.401
0.90,120.43,5.315,98.401
0.90,120.43,5.315,98.401
0.91,120.43,5.315,98.401
0.91,120.43,5.315,98.400
0.91,120.43,5.315,98.400
0.92,120.43,5.315,98.401
0.92,120.43,5.315,98.401
0.92,120.43,5.315,98.401
0.93,120.43,5.315,98.401
0.93,120.43,5.315,98.401
0.93,120.43,5.315,98.401
0.94,120.43,5.315,98.401
0.94,120.43,5.315,98.401
0.94,120.43,5.315,98.401
0.95,120.43,5.315,98.402
0.95,120.43,5.315,98.402
0.95,120.43,5.315,98.402
0.96,120.43,5.315,98.401
0.96,120.43,5.315,98.402
0.96,120.43,5.315,98.402
0.97,120.43,5.315,98.402
0.97,120.43,5.315,98.402
0.97,120.43,5.315,98.402
0.98,120.43,5.315,98.402
0.98,120.43,5.315,98.401
0.98,120.43,5.315,98.401
0.99,120.43,5.315,98.401
0.99,120.43,5.315,98.402
0.99,120.43,5.315,98.402
1.00,120.43,5.315,98.402
1.00,120.43,5.315,98.402

[step]
Equilibrate 150.00 °C
Time,Temperature,Weight,Weight
min,°C,mg,%
1.00,120.43,5.315,98.402
1.01,120.43,5.382,99.654
1.01,120.43,5.439,100.707
1.02,120.43,5.462,101.130
1.03,120.43,5.466,101.200
1.03,120.44,5.467,101.218
1.04,120.46,5.468,101.247
1.05,120.48,5.467,101.212
1.05,120.52,5.469,101.264
1.06,120.57,5.468,101.245
1.07,120.63,5.469,101.259
1.07,120.72,5.469,101.260
1.08,120.82,5.470,101.272
1.09,120.95,5.470,101.274
1.09,121.10,5.470,101.275
1.10,121.27,5.470,101.284
1.11,121.46,5.471,101.285
1.11,121.67,5.471,101.285
1.12,121.90,5.470,101.280
1.13,122.15,5.470,101.276
1.13,122.42,5.470,101.274
1.14,122.70,5.470,101.270
1.15,122.99,5.470,101.269
1.15,123.30,5.469,101.265
1.16,123.61,5.469,101.265
1.17,123.94,5.469,101.261
1.17,124.27,5.469,101.261
1.18,124.61,5.469,101.259
1.19,124.96,5.469,101.256
1.19,125.31,5.469,101.255
1.20,125.66,5.469,101.253
1.21,126.01,5.469,101.253
1.21,126.37,5.469,101.251
1.22,126.73,5.469,101.250
1.23,127.08,5.469,101.248
1.23,127.44,5.468,101.246
1.24,127.79,5.468,101.245
1.25,128.14,5.468,101.243
1.25,128.49,5.468,101.241
1.26,128.83,5.468,101.239
1.27,129.17,5.468,101.237
1.27,129.51,5.468,101.235
1.28,129.85,5.468,101.234
1.29,130.18,5.468,101.231
1.29,130.50,5.468,101.229
1.30,130.82,5.467,101.227
1.31,131.14,5.467,101.225
1.31,131.45,5.467,101.224
1.32,131.75,5.467,101.221
1.33,132.05,5.467,101.220
1.33,132.35,5.467,101.219
1.34,132.64,5.467,101.217
1.35,132.92,5.467,101.215
1.35,133.20,5.467,101.213
1.36,133.48,5.467,101.211
1.37,133.75,5.466,101.209
1.37,134.02,5.466,101.208
1.38,134.29,5.466,101.206
1.39,134.55,5.466,101.204
1.39,134.81,5.466,101.203
1.40,135.07,5.466,101.201
1.41,135.32,5.466,101.200
1.41,135.57,5.466,101.198
1.42,135.82,5.466,101.196
1.43,136.07,5.466,101.195
1.43,136.32,5.466,101.193
1.44,136.56,5.466,101.192
1.45,136.80,5.465,101.190
1.45,137.03,5.465,101.188
1.46,137.27,5.465,101.186
1.47,137.50,5.465,101.184
1.47,137.73,5.465,101.182
1.48,137.96,5.465,101.181
1.49,138.18,5.465,101.179
1.49,138.40,5.465,101.177
1.50,138.62,5.465,101.176
1.51,138.84,5.465,101.176
1.51,139.05,5.465,101.174
1.52,139.26,5.464,101.173
1.53,139.46,5.464,101.172
1.53,139.67,5.464,101.171
1.54,139.87,5.464,101.169
1.55,140.06,5.464,101.168
1.55,140.25,5.464,101.166
1.56,140.44,5.464,101.164
1.57,140.63,5.464,101.162
1.57,140.81,5.464,101.161
1.58,140.99,5.464,101.160
1.59,141.17,5.464,101.157
1.59,141.34,5.463,101.155
1.60,141.51,5.463,101.154
1.61,141.67,5.463,101.153
1.61,141.83,5.463,101.151
1.62,141.99,5.463,101.149
1.63,142.15,5.463,101.147
1.63,142.30,5.463,101.146
1.64,142.45,5.463,101.145
1.65,142.60,5.463,101.143
1.65,142.74,5.463,101.141
1.66,142.89,5.463,101.140
1.67,143.02,5.463,101.139
1.67,143.16,5.463,101.138
1.68,143.29,5.463,101.136
1.69,143.43,5.462,101.135
1.69,143.56,5.462,101.133
1.70,143.68,5.462,101.132
1.71,143.81,5.462,101.132
1.71,143.93,5.462,101.130
1.72,144.05,5.462,101.129
1.73,144.16,5.462,101.127
1.73,144.28,5.462,101.126
1.74,144.39,5.462,101.125
1.75,144.50,5.462,101.123
1.75,144.61,5.462,101.123
1.76,144.72,5.462,101.122
1.77,144.83,5.462,101.121
1.77,144.93,5.462,101.120
1.78,145.03,5.462,101.118
1.79,145.13,5.461,101.117
1.79,145.23,5.461,101.116
1.80,145.32,5.461,101.115
1.81,145.42,5.461,101.114
1.81,145.51,5.461,101.112
1.82,145.60,5.461,101.111
1.83,145.69,5.461,101.111
1.83,145.78,5.461,101.109
1.84,145.86,5.461,101.108
1.85,145.95,5.461,101.106
1.85,146.03,5.461,101.105
1.86,146.11,5.461,101.104
1.87,146.19,5.461,101.102
1.87,146.27,5.461,101.101
1.88,146.34,5.461,101.100
1.89,146.42,5.460,101.099
1.89,146.49,5.460,101.097
1.90,146.56,5.460,101.096
1.91,146.63,5.460,101.096
1.91,146.70,5.460,101.095
1.92,146.77,5.460,101.093
1.93,146.84,5.460,101.092
1.93,146.91,5.460,101.091
1.94,146.97,5.460,101.090
1.95,147.03,5.460,101.088
1.95,147.09,5.460,101.087
1.96,147.16,5.460,101.086
1.97,147.22,5.460,101.085
1.97,147.27,5.460,101.084
1.98,147.33,5.460,101.084
1.99,147.39,5.460,101.083
1.99,147.44,5.460,101.082
2.00,147.50,5.460,101.081
2.01,147.55,5.459,101.080
2.01,147.60,5.459,101.079
2.02,147.65,5.459,101.078
2.03,147.71,5.459,101.078
2.03,147.75,5.459,101.078
2.04,147.80,5.459,101.077
2.05,147.85,5.459,101.076
2.05,147.90,5.459,101.075
2.06,147.94,5.459,101.074
2.07,147.99,5.459,101.073
2.07,148.03,5.459,101.073
2.08,148.08,5.459,101.071
2.09,148.12,5.459,101.071
2.09,148.16,5.459,101.069
2.10,148.20,5.459,101.068
2.11,148.24,5.459,101.068
2.11,148.28,5.459,101.066
2.12,148.32,5.459,101.066
2.13,148.36,5.459,101.065
2.13,148.40,5.459,101.064
2.14,148.43,5.459,101.063
2.15,148.47,5.458,101.062
2.15,148.50,5.458,101.060
2.16,148.54,5.458,101.060
2.17,148.57,5.458,101.060
2.17,148.61,5.458,101.059
2.18,148.64,5.458,101.059
2.19,148.67,5.458,101.058
2.19,148.70,5.458,101.056
2.20,148.73,5.458,101.055
2.21,148.76,5.458,101.054
2.21,148.79,5.458,101.053
2.22,148.82,5.458,101.052
2.23,148.85,5.458,101.052
2.23,148.88,5.458,101.051
2.24,148.91,5.458,101.050
2.25,148.93,5.458,101.049
2.25,148.96,5.458,101.049
2.26,148.99,5.458,101.048
2.27,149.01,5.458,101.048
2.27,149.04,5.458,101.046
2.28,149.06,5.458,101.045
2.29,149.09,5.458,101.045
2.29,149.11,5.458,101.044
2.30,149.13,5.457,101.043
2.31,149.16,5.457,101.042
2.31,149.18,5.457,101.041
2.32,149.20,5.457,101.040
2.33,149.22,5.457,101.040
2.33,149.24,5.457,101.039
2.34,149.26,5.457,101.037
2.35,149.29,5.457,101.037
2.35,149.31,5.457,101.036
2.36,149.32,5.457,101.035
2.37,149.34,5.457,101.034
2.37,149.36,5.457,101.033
2.38,149.38,5.457,101.032
2.39,149.40,5.457,101.032
2.39,149.42,5.457,101.032
2.40,149.43,5.457,101.031
2.41,149.45,5.457,101.030
2.41,149.47,5.457,101.030
2.42,149.49,5.457,101.028
2.43,149.50,5.457,101.027
2.43,149.52,5.457,101.027
2.44,149.53,5.457,101.026
2.45,149.55,5.456,101.025
2.45,149.56,5.456,101.024
2.46,149.58,5.456,101.023
2.47,149.59,5.456,101.022
2.47,149.61,5.456,101.022
2.48,149.62,5.456,101.021
2.49,149.63,5.456,101.022
2.49,149.65,5.456,101.020
2.50,149.66,5.456,101.019
2.51,149.67,5.456,101.019
2.51,149.69,5.456,101.019
2.52,149.70,5.456,101.018
2.53,149.71,5.456,101.017
2.53,149.72,5.456,101.016
2.54,149.73,5.456,101.015
2.55,149.75,5.456,101.014
2.55,149.76,5.456,101.014
2.56,149.77,5.456,101.013
2.57,149.78,5.456,101.013
2.57,149.79,5.456,101.011
[...]
39.48,102.42,5.444,100.800,4.73658e-3
39.49,102.36,5.444,100.800,-2.95157e-3
39.50,102.30,5.444,100.800,4.49200e-4
39.50,102.24,5.444,100.800,-3.88854e-3
39.51,102.18,5.444,100.800,0.0100063
39.52,102.12,5.444,100.800,4.04533e-3
39.52,102.06,5.444,100.800,-9.12205e-3
39.53,102.00,5.444,100.800,-4.16447e-3
39.54,101.94,5.444,100.800,-6.65716e-3
39.54,101.89,5.444,100.801,-2.91856e-3
39.55,101.83,5.444,100.801,5.53808e-3
39.56,101.77,5.444,100.801,-5.17766e-3
39.56,101.72,5.444,100.801,-0.0130056
39.57,101.66,5.444,100.802,-4.66305e-3
39.58,101.61,5.444,100.802,-4.29711e-3
39.58,101.56,5.444,100.802,-0.0171144
39.59,101.50,5.444,100.803,-4.20935e-3
39.60,101.45,5.444,100.803,-3.63201e-3
39.60,101.40,5.444,100.803,2.25140e-3
39.61,101.35,5.445,100.804,-7.87774e-3
39.62,101.31,5.445,100.804,-4.73244e-3
39.62,101.26,5.445,100.804,-5.39094e-3
39.63,101.22,5.445,100.804,-7.36369e-3
39.64,101.17,5.445,100.805,-5.44364e-3
39.64,101.13,5.445,100.805,-1.49978e-3
39.65,101.09,5.445,100.804,0.0111018
39.66,101.04,5.445,100.805,-0.0146962
39.66,101.00,5.445,100.805,-9.64619e-3
39.67,100.97,5.445,100.805,2.05616e-3
39.68,100.93,5.445,100.806,-4.26023e-3
39.68,100.89,5.445,100.805,8.54785e-3
39.69,100.85,5.445,100.806,-0.0177270
39.70,100.82,5.445,100.805,0.0155918
39.70,100.79,5.445,100.805,5.68580e-3
39.71,100.75,5.445,100.805,-8.61468e-3
39.72,100.72,5.445,100.806,-0.0176953
39.72,100.69,5.445,100.806,-4.60821e-4
39.73,100.66,5.445,100.806,-0.0192364
39.74,100.63,5.445,100.807,-0.0174847
39.74,100.60,5.445,100.806,0.0356039
39.75,100.57,5.445,100.806,-8.70606e-4
39.76,100.54,5.445,100.806,-0.0110109
39.76,100.51,5.445,100.806,0.0264386
39.77,100.49,5.445,100.805,0.0111904
39.78,100.46,5.445,100.806,-9.92033e-3
39.78,100.43,5.445,100.806,-0.0260088
39.79,100.41,5.445,100.806,0.0145756
39.80,100.38,5.445,100.806,-0.0342873
39.80,100.36,5.445,100.807,-0.0233559
39.81,100.33,5.445,100.807,0.0119841
39.82,100.31,5.445,100.807,-0.0194012
39.82,100.29,5.445,100.808,-0.0300547
39.83,100.26,5.445,100.808,0.0315484
39.84,100.24,5.445,100.808,1.79069e-3
39.84,100.22,5.445,100.807,0.0206730
39.85,100.20,5.445,100.807,6.51094e-3
39.86,100.18,5.445,100.807,-6.37098e-3
39.86,100.16,5.445,100.807,9.60544e-3
39.87,100.14,5.445,100.807,3.53930e-3
39.88,100.12,5.445,100.807,3.83428e-3
39.88,100.10,5.445,100.806,0.0397437
39.89,100.08,5.445,100.806,2.25335e-3
39.90,100.06,5.445,100.806,-8.57560e-3
39.90,100.04,5.445,100.806,-1.51259e-3
39.91,100.02,5.445,100.806,-8.75866e-3
39.92,100.01,5.445,100.806,-0.0238894
39.92,99.99,5.445,100.807,0.0254915
39.93,99.97,5.445,100.806,4.61273e-3
39.94,99.96,5.445,100.806,0.0140280
39.94,99.94,5.445,100.806,5.72139e-4
39.95,99.92,5.445,100.806,0.0308967
39.96,99.91,5.445,100.805,-9.16387e-3
39.96,99.89,5.445,100.806,0.0141457
39.97,99.88,5.445,100.805,0.0194969
39.98,99.87,5.445,100.805,-0.0122747
39.98,99.85,5.445,100.805,-9.25419e-3
39.99,99.84,5.445,100.806,-0.0461623
40.00,99.82,5.445,100.806,-0.0403289
40.00,99.81,5.445,100.806,-0.0268750
40.01,99.80,5.445,100.807,-0.0212174
40.02,99.79,5.445,100.807,0.0284064
40.02,99.77,5.445,100.806,0.0251357
40.03,99.76,5.445,100.806,0.0133521
40.04,99.75,5.445,100.806,-0.0428346
40.04,99.74,5.445,100.807,-0.0259758
40.05,99.73,5.445,100.807,0.0213571
40.06,99.72,5.445,100.806,-4.20175e-3
40.06,99.71,5.445,100.807,0.0132358
40.07,99.70,5.445,100.806,7.74875e-3
40.08,99.69,5.445,100.807,-0.0679171
40.08,99.68,5.445,100.807,0.0152423
40.09,99.67,5.445,100.807,-7.85455e-3
40.10,99.66,5.445,100.807,0.0776559
40.10,99.65,5.445,100.806,0.0455738
40.11,99.64,5.445,100.806,-0.0287271
40.12,99.63,5.445,100.807,-0.0452893
40.12,99.62,5.445,100.807,-0.0383362
40.13,99.62,5.445,100.807,0.0216179
40.14,99.61,5.445,100.807,-0.0885486
40.14,99.60,5.445,100.807,-0.0223253
40.15,99.59,5.445,100.808,-0.0621647
40.16,99.59,5.445,100.808,0.0853153
40.16,99.58,5.445,100.807,0.0431473
40.17,99.57,5.445,100.807,-0.0771113
40.18,99.57,5.445,100.807,-0.0115087
40.18,99.56,5.445,100.808,7.63245e-3
40.19,99.55,5.445,100.808,5.94238e-3
40.20,99.55,5.445,100.808,-0.0659767
40.20,99.54,5.445,100.808,-0.0632673
40.21,99.53,5.445,100.809,0.0289681
40.22,99.53,5.445,100.808,1.04424e-3
40.22,99.52,5.445,100.809,-0.0182232
40.23,99.52,5.445,100.809,-0.0101076
40.24,99.51,5.445,100.808,4.90439e-3
40.24,99.51,5.445,100.808,0.0892916
40.25,99.50,5.445,100.808,0.0438936
40.26,99.50,5.445,100.808,-0.144738
40.26,99.49,5.445,100.808,0.0741415
40.27,99.49,5.445,100.808,-0.0164194
40.28,99.49,5.445,100.808,-7.46581e-4
40.28,99.48,5.445,100.808,0.0695112
40.29,99.48,5.445,100.808,0.162552
40.30,99.47,5.445,100.807,0.0458867
40.30,99.47,5.445,100.807,0.0416038
40.31,99.47,5.445,100.807,0.0414714
40.32,99.46,5.445,100.807,0.0728765
40.32,99.46,5.445,100.807,-0.0697812
40.33,99.45,5.445,100.807,-0.0323879
40.34,99.45,5.445,100.807,-0.0648263
40.34,99.45,5.445,100.807,-0.0471693
40.35,99.45,5.445,100.807,0.0845179
40.36,99.44,5.445,100.807,0.0529710
40.36,99.44,5.445,100.807,0.0610466
40.37,99.44,5.445,100.807,-0.204416
40.38,99.43,5.445,100.807,0.100137
40.38,99.43,5.445,100.807,0.247277
40.39,99.43,5.445,100.806,0.0928611
40.40,99.43,5.445,100.807,-0.352805
40.40,99.42,5.445,100.807,-0.110973
40.41,99.42,5.445,100.807,0.169480
40.42,99.42,5.445,100.807,-0.0820012
40.42,99.42,5.445,100.807,-0.168760
40.43,99.42,5.445,100.807,-0.0447541
40.44,99.41,5.445,100.807,0.139120
40.44,99.41,5.445,100.807,0.0390937
40.45,99.41,5.445,100.807,0.0165447
40.46,99.41,5.445,100.807,0.539395
40.46,99.41,5.445,100.806,0.0818521
40.47,99.41,5.445,100.807,-0.638083
40.48,99.41,5.445,100.807,0.102301
40.48,99.41,5.445,100.807,-0.428238
40.49,99.40,5.445,100.807,0.0802486
40.50,99.40,5.445,100.807,-0.471575
40.50,99.40,5.445,100.807,1.38516
40.51,99.40,5.445,100.807,-0.812500
40.52,99.40,5.445,100.807,-1.47306
40.52,99.40,5.445,100.808,0.579106
40.53,99.40,5.445,100.807,1.47273
40.54,99.40,5.445,100.807,0.792197
40.54,99.40,5.445,100.808,-8.32524
40.55,99.40,5.445,100.808,-2.16477
40.56,99.40,5.445,100.808,1.56004
40.56,99.40,5.445,100.808,-0.484099
40.57,99.40,5.445,100.808,1.96897
40.58,99.40,5.445,100.808,0.185279
40.58,99.40,5.445,100.809,-0.484630
40.59,99.40,5.445,100.809,1.76887
40.60,99.40,5.445,100.809,0.554252
40.60,99.40,5.445,100.809,-0.447236
40.61,99.40,5.445,100.808,-0.882756
40.62,99.41,5.445,100.809,0.223776
40.62,99.41,5.445,100.809,0.119261
40.63,99.41,5.445,100.808,-0.739143
40.64,99.41,5.445,100.808,0.156292
40.64,99.41,5.445,100.808,-0.0429286
40.65,99.41,5.445,100.808,-0.324915
40.66,99.41,5.445,100.808,-0.284423
40.66,99.41,5.445,100.808,-0.0641143
40.67,99.41,5.445,100.808,0.492919
40.68,99.41,5.445,100.808,-0.178979
40.68,99.41,5.445,100.808,0.236341
40.69,99.42,5.445,100.808,0.122646
40.70,99.42,5.445,100.808,0.0306139
40.70,99.42,5.445,100.808,-0.268751
40.71,99.42,5.445,100.809,0.414301
40.72,99.42,5.445,100.808,-0.734165
40.72,99.42,5.445,100.807,-0.413417
40.73,99.42,5.445,100.808,0.614439
40.74,99.42,5.445,100.808,0.313165
40.74,99.42,5.445,100.809,0.124390
40.75,99.43,5.445,100.809,-0.0447169
40.76,99.43,5.445,100.808,0.183604
40.76,99.43,5.445,100.809,0.368372
40.77,99.43,5.445,100.810,-0.0862242
40.78,99.43,5.445,100.809,-0.524723
40.78,99.43,5.445,100.808,-0.303870
40.79,99.43,5.445,100.808,0.295727
40.80,99.44,5.445,100.809,0.867762
40.80,99.44,5.445,100.810,-0.305182
40.81,99.44,5.445,100.809,-0.550530
40.82,99.44,5.445,100.808,0.192713
40.82,99.44,5.445,100.809,0.105249
40.83,99.44,5.445,100.809,0.112917
40.84,99.45,5.445,100.809,-0.133502
40.84,99.45,5.445,100.809,0.0886965
40.85,99.45,5.445,100.809,-0.0424124
40.86,99.45,5.445,100.809,0.0484215
40.86,99.45,5.445,100.809,0.186825
40.87,99.45,5.445,100.809,-0.210142
40.88,99.46,5.445,100.809,-0.191337
40.88,99.46,5.445,100.809,0.137541
40.89,99.46,5.445,100.810,0.255797
40.90,99.46,5.445,100.809,-0.0899904
40.90,99.46,5.445,100.809,-0.0440685
40.91,99.47,5.445,100.809,-0.0473387
40.92,99.47,5.445,100.809,-0.0610710
40.92,99.47,5.445,100.809,0.105103
40.93,99.47,5.445,100.809,0.0648347
40.94,99.48,5.445,100.809,-0.0708361
40.94,99.48,5.445,100.810,0.158503
40.95,99.48,5.445,100.810,0.194899
40.96,99.48,5.445,100.810,0.0793386
40.96,99.48,5.445,100.810,-0.180962
40.97,99.49,5.445,100.810,0.0946095
40.98,99.49,5.445,100.810,0.0404924
40.98,99.49,5.445,100.810,-0.110976
40.99,99.49,5.445,100.810,-0.0469338
41.00,99.50,5.445,100.810,0.0300792
41.00,99.50,5.445,100.811,0.0879130
41.01,99.50,5.445,100.810,-0.298702
41.02,99.50,5.445,100.810,-9.33333e-3
41.02,99.50,5.445,100.810,-0.200518
41.03,99.51,5.445,100.809,0.0179709
41.04,99.51,5.445,100.810,0.325000
41.04,99.51,5.445,100.810,0.0790698
41.05,99.51,5.445,100.810,-0.144045