File: instrument_data/TGA/Co(phen)2(SCN)2 electromagnet RT-325-100 20C11142022.csv
Filename,Co(phen)2(SCN)2 electromagnet RT-325-100 20C11142022
Instrument name,5500-0566 (192.168.10.4)
Operator,Adam K
rundate,11/14/2022
Sample name,Co(phen)2(SCN)2 electromagnet RT-325-100 20C
proceduresegments,Equilibrate 120.00 °C; Isothermal 1.0 min; Electromagnet On 60.0 %; Equilibrate 120.00 °C; Ramp 20.00 °C/min to 325.00 °C; Ramp 20.00 °C/min to 100.00 °C; Equilibrate 100.00 °C
[File Parameters]
Run date,11/14/2022 3:49:10 PM
Trios version,5.3.0.48151
Original File Name,C:\ProgramData\TA Instruments\TRIOS\Data\CH302_B3_22_AK\Co(phen)2(SCN)2 electromagnet RT-325-100 20C11142022.tri
Current File Name,C:/ProgramData/TA Instruments/TRIOS/Data/CH302_B3_22_AK/Co(phen)2(SCN)2 electromagnet RT-325-100 20C11142022.tri
User at run start,CH-CBWNNF3-0721\ChemLocal
[Procedure]
Procedure Name,
Sample Name,Co(phen)2(SCN)2 electromagnet RT-325-100 20C
Pan Number,3
Sample Mass,12.630 mg
Pan Type,Aluminum
Comments,
Project Name,Spin Crossover
Operator,Adam K
Test,Custom
Skip Weight Stabilization,False
Sample mass pre-weigh,Not Available
Stop on Gas Flow Error,No
[Signal List]
Signal #1,Time (min)
Signal #2,Temperature (°C)
Signal #3,Weight (mg)
Signal #4,Temperature Difference (°C)
Signal #5,Sample Purge (mL/min)
Signal #6,Balance Purge (mL/min)
Signal #7,Set Point Temperature (°C)
Signal #8,Power Delivered (W)
Signal #9,Ramp Rate (°C/min)
[Configuration]
Company Name,localcc
Instrument Name,5500-0566
Instrument Type,TGA5500
Serial Number,5500-0566
IP,192.168.10.4
Location of Instrument,Olin Hall Rm 364
DisplayType,TianmaV2
Sample Interval ,0.1 s/pt
Gas 1,Nitrogen
Gas 2,Air
Selected Gas Channel,1
MTGA HiRes Licensed,Yes
[Versions]
Common IDD Version,1
Cortex Version,VER 2.1.2.60
Driver,5.0.0.6
GDM Version,1.2.1.2
TouchscreenVersion,1.0.3.1795
PCU Version,1.2.0.15
Transducer Version,1.1.0.32
[Experiment Logs]
Experiment Log Entry # 1,Equilibrate Segment 120 (C) Started
Experiment Log Entry # 3,Isothermal Segment 1 min started
Experiment Log Entry # 5,"Curie Magnet Segment enable 1, 60 %"
Experiment Log Entry # 7,Equilibrate Segment 120 (C) Started
Experiment Log Entry # 9,Ramp Segment 20 C/min to 325 C Started
Experiment Log Entry # 11,Ramp Segment 20 C/min to 100 C Started
Experiment Log Entry # 13,Ending Experiment because user stopped
Experiment Log Entry # 15,Ending Experiment
[Method Log]
Method Log Entry # 1,Equilibrate 120 °C
Method Log Entry # 2,Isothermal 1 minutes
Method Log Entry # 3,Electromagnet On 60 %
Method Log Entry # 4,Equilibrate 120 °C
Method Log Entry # 5,(Ramp 6177) Ramp 20 °C/minute to 325 °C
Method Log Entry # 6,(Ramp 6178) Ramp 20 °C/minute to 100 °C
[Weight Calibration]
Date Applied,7/20/2022 10:21:44 AM
Empty Pan Number,23
Empty Pan Weight,341.358 mg
Low Reference Weight Pan Number,24
Low Reference Weight,442.546 mg
High Reference Weight Pan Number,25
High Reference Weight,"1,243.774 mg"
Low Gain Meter Reading,9.9772E-006 mg/count
High Gain Meter Reading,7.9459E-005 mg/count
Low Meter Offset,31.8759 mg
High Meter Offset,613.7978 mg
[Curie Calibration]
Date Applied,8/11/2021 12:40:46 PM
Description,From 256.990 °C to 456.990 °C at 20.000°C/min
Gas Type,Nitrogen
Pan Type,Platinum (100 uL)
Source Files 1,C:\ProgramData\TA Instruments\TRIOS\Data\Nickel Calibration.tri
Source Files 2,C:\ProgramData\TA Instruments\TRIOS\Data\Alumel Calibration.tri
Measured 1,158.9083
Known 1,154.16
Measured 2,358.1255
Known 2,356.99
[step]
Isothermal 1.0 min
Time,Temperature,Weight,Weight
min,°C,mg,%
0.00,120.13,12.530,99.208
0.00,120.13,12.530,99.208
0.01,120.13,12.530,99.208
0.01,120.13,12.530,99.208
0.01,120.14,12.530,99.208
0.02,120.14,12.530,99.208
0.02,120.14,12.530,99.208
0.02,120.14,12.530,99.208
0.03,120.15,12.530,99.208
0.03,120.15,12.530,99.208
0.03,120.15,12.530,99.208
0.04,120.15,12.530,99.207
0.04,120.16,12.530,99.207
0.04,120.16,12.530,99.207
0.05,120.16,12.530,99.207
0.05,120.16,12.530,99.207
0.05,120.17,12.530,99.207
0.06,120.17,12.530,99.207
0.06,120.17,12.530,99.206
0.06,120.17,12.530,99.206
0.07,120.17,12.530,99.206
0.07,120.18,12.530,99.206
0.07,120.18,12.530,99.206
0.08,120.18,12.530,99.206
0.08,120.18,12.530,99.206
0.08,120.19,12.530,99.206
0.09,120.19,12.530,99.205
0.09,120.19,12.530,99.205
0.09,120.19,12.530,99.205
0.10,120.19,12.530,99.205
0.10,120.20,12.530,99.205
0.10,120.20,12.530,99.204
0.11,120.20,12.530,99.204
0.11,120.20,12.530,99.204
0.11,120.20,12.530,99.204
0.12,120.21,12.530,99.204
0.12,120.21,12.530,99.204
0.12,120.21,12.530,99.204
0.13,120.21,12.530,99.204
0.13,120.21,12.530,99.204
0.13,120.22,12.530,99.204
0.14,120.22,12.530,99.204
0.14,120.22,12.530,99.204
0.14,120.22,12.530,99.204
0.15,120.22,12.530,99.204
0.15,120.22,12.530,99.204
0.15,120.23,12.530,99.203
0.16,120.23,12.530,99.203
0.16,120.23,12.530,99.203
0.16,120.23,12.530,99.203
0.17,120.23,12.530,99.203
0.17,120.24,12.530,99.203
0.17,120.24,12.530,99.203
0.18,120.24,12.530,99.203
0.18,120.24,12.530,99.203
0.18,120.24,12.530,99.203
0.19,120.24,12.530,99.203
0.19,120.25,12.530,99.203
0.19,120.25,12.530,99.203
0.20,120.25,12.530,99.202
0.20,120.25,12.530,99.202
0.20,120.25,12.530,99.202
0.21,120.25,12.529,99.202
0.21,120.26,12.529,99.202
0.21,120.26,12.530,99.202
0.22,120.26,12.529,99.202
0.22,120.26,12.529,99.202
0.22,120.26,12.529,99.202
0.23,120.26,12.529,99.202
0.23,120.26,12.529,99.202
0.23,120.27,12.529,99.202
0.24,120.27,12.529,99.202
0.24,120.27,12.529,99.202
0.24,120.27,12.529,99.202
0.25,120.27,12.529,99.202
0.25,120.27,12.529,99.201
0.25,120.28,12.529,99.201
0.26,120.28,12.529,99.201
0.26,120.28,12.529,99.201
0.26,120.28,12.529,99.201
0.27,120.28,12.529,99.201
0.27,120.28,12.529,99.201
0.27,120.28,12.529,99.200
0.28,120.28,12.529,99.200
0.28,120.29,12.529,99.200
0.28,120.29,12.529,99.200
0.29,120.29,12.529,99.200
0.29,120.29,12.529,99.200
0.29,120.29,12.529,99.200
0.30,120.29,12.529,99.200
0.30,120.29,12.529,99.200
0.30,120.30,12.529,99.200
0.31,120.30,12.529,99.200
0.31,120.30,12.529,99.200
0.31,120.30,12.529,99.200
0.32,120.30,12.529,99.200
0.32,120.30,12.529,99.200
0.32,120.30,12.529,99.200
0.33,120.30,12.529,99.199
0.33,120.31,12.529,99.199
0.33,120.31,12.529,99.199
0.34,120.31,12.529,99.199
0.34,120.31,12.529,99.199
0.34,120.31,12.529,99.199
0.35,120.31,12.529,99.199
0.35,120.31,12.529,99.199
0.35,120.31,12.529,99.199
0.36,120.31,12.529,99.199
0.36,120.32,12.529,99.199
0.36,120.32,12.529,99.199
0.37,120.32,12.529,99.199
0.37,120.32,12.529,99.199
0.37,120.32,12.529,99.199
0.38,120.32,12.529,99.199
0.38,120.32,12.529,99.199
0.38,120.32,12.529,99.199
0.39,120.32,12.529,99.199
0.39,120.33,12.529,99.199
0.39,120.33,12.529,99.199
0.40,120.33,12.529,99.199
0.40,120.33,12.529,99.199
0.40,120.33,12.529,99.199
0.41,120.33,12.529,99.199
0.41,120.33,12.529,99.199
0.41,120.33,12.529,99.199
0.42,120.33,12.529,99.199
0.42,120.33,12.529,99.199
0.42,120.34,12.529,99.198
0.43,120.34,12.529,99.199
0.43,120.34,12.529,99.198
0.43,120.34,12.529,99.198
0.44,120.34,12.529,99.198
0.44,120.34,12.529,99.198
0.44,120.34,12.529,99.198
0.45,120.34,12.529,99.198
0.45,120.34,12.529,99.198
0.45,120.34,12.529,99.198
0.46,120.34,12.529,99.198
0.46,120.34,12.529,99.198
0.46,120.34,12.529,99.198
0.47,120.35,12.529,99.198
0.47,120.35,12.529,99.198
0.47,120.35,12.529,99.198
0.48,120.35,12.529,99.198
0.48,120.35,12.529,99.198
0.48,120.35,12.529,99.198
0.49,120.35,12.529,99.198
0.49,120.35,12.529,99.198
0.49,120.35,12.529,99.198
0.50,120.35,12.529,99.198
0.50,120.35,12.529,99.197
0.50,120.35,12.529,99.197
0.51,120.35,12.529,99.197
0.51,120.35,12.529,99.197
0.51,120.35,12.529,99.197
0.52,120.35,12.529,99.197
0.52,120.36,12.529,99.197
0.52,120.36,12.529,99.197
0.53,120.36,12.529,99.197
0.53,120.36,12.529,99.196
0.53,120.36,12.529,99.197
0.54,120.36,12.529,99.196
0.54,120.36,12.529,99.196
0.54,120.36,12.529,99.196
0.55,120.36,12.529,99.196
0.55,120.36,12.529,99.196
0.55,120.36,12.529,99.196
0.56,120.36,12.529,99.196
0.56,120.36,12.529,99.196
0.56,120.36,12.529,99.196
0.57,120.36,12.529,99.196
0.57,120.36,12.529,99.196
0.57,120.36,12.529,99.196
0.58,120.36,12.529,99.195
0.58,120.36,12.529,99.196
0.58,120.37,12.529,99.195
0.59,120.37,12.529,99.195
0.59,120.37,12.529,99.195
0.59,120.37,12.529,99.196
0.60,120.37,12.529,99.195
0.60,120.37,12.529,99.195
0.60,120.37,12.529,99.195
0.61,120.37,12.529,99.195
0.61,120.37,12.529,99.195
0.61,120.37,12.529,99.195
0.62,120.37,12.529,99.195
0.62,120.37,12.529,99.195
0.62,120.37,12.529,99.195
0.63,120.37,12.529,99.195
0.63,120.37,12.529,99.195
0.63,120.37,12.529,99.195
0.64,120.37,12.529,99.195
0.64,120.37,12.529,99.195
0.64,120.37,12.529,99.195
0.65,120.37,12.529,99.195
0.65,120.37,12.529,99.195
0.65,120.38,12.529,99.195
0.66,120.38,12.529,99.195
0.66,120.38,12.529,99.195
0.66,120.38,12.529,99.195
0.67,120.38,12.529,99.195
0.67,120.38,12.529,99.194
0.67,120.38,12.529,99.194
0.68,120.38,12.529,99.194
0.68,120.38,12.528,99.194
0.68,120.38,12.528,99.194
0.69,120.38,12.528,99.194
0.69,120.38,12.528,99.194
0.69,120.38,12.528,99.194
0.70,120.38,12.528,99.194
0.70,120.38,12.528,99.194
0.70,120.38,12.528,99.194
0.71,120.38,12.528,99.194
0.71,120.38,12.528,99.194
0.71,120.38,12.528,99.194
0.72,120.38,12.528,99.194
0.72,120.38,12.528,99.194
0.72,120.38,12.529,99.194
0.73,120.38,12.529,99.194
0.73,120.38,12.529,99.194
0.73,120.38,12.528,99.194
0.74,120.38,12.528,99.194
0.74,120.39,12.528,99.194
0.74,120.39,12.528,99.194
0.75,120.39,12.528,99.194
0.75,120.39,12.528,99.193
0.75,120.39,12.528,99.193
0.76,120.39,12.528,99.193
0.76,120.39,12.528,99.193
0.76,120.39,12.528,99.193
0.77,120.39,12.528,99.193
0.77,120.39,12.528,99.193
0.77,120.39,12.528,99.193
0.78,120.39,12.528,99.193
0.78,120.39,12.528,99.193
0.78,120.39,12.528,99.194
0.79,120.39,12.528,99.193
0.79,120.39,12.528,99.193
0.79,120.39,12.528,99.193
0.80,120.39,12.528,99.193
0.80,120.39,12.528,99.193
0.80,120.39,12.528,99.193
0.81,120.39,12.528,99.193
0.81,120.39,12.528,99.193
0.81,120.39,12.528,99.193
0.82,120.39,12.528,99.193
0.82,120.39,12.528,99.193
0.82,120.39,12.528,99.193
0.83,120.39,12.528,99.193
0.83,120.39,12.528,99.193
0.83,120.39,12.528,99.193
0.84,120.39,12.528,99.193
0.84,120.39,12.528,99.193
0.84,120.39,12.528,99.193
0.85,120.39,12.528,99.193
0.85,120.39,12.528,99.193
0.85,120.39,12.528,99.193
0.86,120.39,12.528,99.193
0.86,120.39,12.528,99.193
0.86,120.39,12.528,99.193
0.87,120.39,12.528,99.193
0.87,120.39,12.528,99.193
0.87,120.39,12.528,99.193
0.88,120.39,12.528,99.193
0.88,120.39,12.528,99.193
0.88,120.39,12.528,99.193
0.89,120.39,12.528,99.193
0.89,120.39,12.528,99.193
0.89,120.39,12.528,99.193
0.90,120.39,12.528,99.193
0.90,120.39,12.528,99.193
0.90,120.39,12.528,99.192
0.91,120.39,12.528,99.192
0.91,120.39,12.528,99.192
0.91,120.39,12.528,99.192
0.92,120.39,12.528,99.192
0.92,120.39,12.528,99.192
0.92,120.39,12.528,99.192
0.93,120.39,12.528,99.192
0.93,120.39,12.528,99.192
0.93,120.39,12.528,99.192
0.94,120.39,12.528,99.192
0.94,120.39,12.528,99.192
0.94,120.39,12.528,99.192
0.95,120.39,12.528,99.192
0.95,120.39,12.528,99.192
0.95,120.39,12.528,99.192
0.96,120.39,12.528,99.192
0.96,120.39,12.528,99.192
0.96,120.39,12.528,99.192
0.97,120.39,12.528,99.192
0.97,120.39,12.528,99.192
0.97,120.39,12.528,99.192
0.98,120.39,12.528,99.192
0.98,120.39,12.528,99.192
0.98,120.39,12.528,99.192
0.99,120.39,12.528,99.192
0.99,120.39,12.528,99.192
0.99,120.39,12.528,99.192
1.00,120.39,12.528,99.192
1.00,120.39,12.528,99.192

[step]
Equilibrate 120.00 °C
Time,Temperature,Weight,Weight
min,°C,mg,%
1.00,120.39,12.528,99.192
1.00,120.39,12.576,99.569
1.01,120.39,12.642,100.095
1.01,120.39,12.695,100.510
1.01,120.39,12.731,100.797
1.02,120.39,12.751,100.955
1.02,120.39,12.761,101.034
1.02,120.39,12.765,101.064
1.03,120.39,12.769,101.101
1.03,120.39,12.769,101.099
1.03,120.39,12.767,101.082
1.04,120.39,12.769,101.100
1.04,120.39,12.769,101.098
1.04,120.39,12.766,101.073
1.05,120.39,12.766,101.078
1.05,120.39,12.766,101.077
1.05,120.39,12.766,101.076
1.06,120.39,12.766,101.072
1.06,120.39,12.765,101.069
1.06,120.39,12.769,101.098
1.07,120.39,12.767,101.081
1.07,120.39,12.765,101.067
1.07,120.39,12.765,101.067
1.08,120.39,12.767,101.082
1.08,120.39,12.766,101.076
1.08,120.39,12.767,101.083
1.09,120.39,12.767,101.086
1.09,120.39,12.768,101.087
1.09,120.39,12.765,101.069
1.10,120.39,12.766,101.071
1.10,120.39,12.766,101.072
1.10,120.39,12.765,101.066
1.11,120.39,12.765,101.063
1.11,120.39,12.765,101.065
1.11,120.39,12.765,101.064
1.12,120.39,12.764,101.061
1.12,120.39,12.765,101.064
1.12,120.39,12.765,101.064
1.13,120.39,12.765,101.064
1.13,120.39,12.764,101.061
1.13,120.39,12.764,101.061
1.14,120.39,12.764,101.062
1.14,120.39,12.764,101.062
1.14,120.39,12.764,101.062
1.15,120.39,12.764,101.062
1.15,120.39,12.764,101.061
1.15,120.39,12.764,101.059
1.16,120.39,12.764,101.059
1.16,120.38,12.764,101.059
1.16,120.38,12.764,101.058
1.17,120.38,12.764,101.058
1.17,120.38,12.764,101.057
1.17,120.38,12.764,101.057
1.18,120.38,12.764,101.057
1.18,120.38,12.764,101.057
1.18,120.38,12.764,101.057
1.19,120.38,12.764,101.057
1.19,120.38,12.764,101.056
1.19,120.38,12.764,101.057
1.20,120.38,12.764,101.056
1.20,120.38,12.764,101.056
1.20,120.38,12.764,101.056
1.21,120.38,12.764,101.055
1.21,120.38,12.764,101.055
1.21,120.38,12.764,101.055
1.22,120.38,12.764,101.055
1.22,120.38,12.764,101.055
1.22,120.38,12.764,101.055
1.23,120.38,12.763,101.055
1.23,120.38,12.763,101.054
1.23,120.38,12.763,101.054
1.24,120.38,12.763,101.053
1.24,120.38,12.763,101.053
1.24,120.38,12.763,101.053
1.25,120.38,12.763,101.053
1.25,120.38,12.763,101.053
1.25,120.38,12.763,101.053
1.26,120.38,12.763,101.052
1.26,120.38,12.763,101.052
1.26,120.38,12.763,101.052
1.27,120.38,12.763,101.052
1.27,120.38,12.763,101.051
1.27,120.38,12.763,101.051
1.28,120.38,12.763,101.051
1.28,120.38,12.763,101.051
1.28,120.38,12.763,101.050
1.29,120.38,12.763,101.050
1.29,120.38,12.763,101.050
1.29,120.37,12.763,101.049
1.30,120.37,12.763,101.049
1.30,120.37,12.763,101.049
1.30,120.37,12.763,101.049
1.31,120.37,12.763,101.049
1.31,120.37,12.763,101.048
1.31,120.37,12.763,101.048
1.32,120.37,12.763,101.048
1.32,120.37,12.763,101.048
1.32,120.37,12.763,101.047
1.33,120.37,12.763,101.047
1.33,120.37,12.762,101.046
1.33,120.37,12.762,101.046
1.34,120.37,12.762,101.046
1.34,120.37,12.762,101.045
1.34,120.37,12.762,101.045
1.35,120.37,12.762,101.045
1.35,120.37,12.762,101.044
1.35,120.37,12.762,101.044
1.36,120.37,12.762,101.044
1.36,120.37,12.762,101.043
1.36,120.37,12.762,101.043
1.37,120.37,12.762,101.042
1.37,120.37,12.762,101.042
1.37,120.37,12.762,101.042
1.38,120.37,12.762,101.041
1.38,120.37,12.762,101.041
1.38,120.37,12.762,101.040
1.39,120.37,12.762,101.040
1.39,120.37,12.762,101.039
1.39,120.36,12.762,101.039
1.40,120.36,12.761,101.039
1.40,120.36,12.761,101.038
1.40,120.36,12.761,101.038
1.41,120.36,12.761,101.038
1.41,120.36,12.761,101.037
1.41,120.36,12.761,101.037
1.42,120.36,12.761,101.036
1.42,120.36,12.761,101.036
1.42,120.36,12.761,101.035
1.43,120.36,12.761,101.035
1.43,120.36,12.761,101.034
1.43,120.36,12.761,101.034
1.44,120.36,12.761,101.033
1.44,120.36,12.761,101.033
1.44,120.36,12.761,101.032
1.45,120.36,12.761,101.032
1.45,120.36,12.761,101.031
1.45,120.36,12.761,101.031
1.46,120.36,12.760,101.031
1.46,120.36,12.760,101.030
1.46,120.36,12.760,101.030
1.47,120.36,12.760,101.029
1.47,120.35,12.760,101.029
1.47,120.35,12.760,101.028
1.48,120.35,12.760,101.027
1.48,120.35,12.760,101.027
1.48,120.35,12.760,101.026
1.49,120.35,12.760,101.026
1.49,120.35,12.760,101.025
1.49,120.35,12.760,101.025
1.50,120.35,12.760,101.025
1.50,120.35,12.760,101.024
1.50,120.35,12.760,101.024
1.51,120.35,12.760,101.023
1.51,120.35,12.759,101.023
1.51,120.35,12.759,101.022
1.52,120.35,12.759,101.022
1.52,120.35,12.759,101.021
1.52,120.35,12.759,101.021
1.53,120.35,12.759,101.020
1.53,120.35,12.759,101.020

[step]
Ramp 20.00 °C/min to 325.00 °C
Time,Temperature,Weight,Weight
min,°C,mg,%
1.53,120.35,12.759,101.019
1.57,120.34,12.758,101.014
1.60,120.35,12.758,101.008
1.63,120.39,12.757,101.003
1.67,120.48,12.756,100.998
1.71,120.65,12.756,100.993
1.74,120.88,12.755,100.987
1.78,121.18,12.754,100.982
1.81,121.55,12.754,100.976
1.84,121.99,12.753,100.971
1.88,122.49,12.752,100.966
1.92,123.04,12.751,100.959
1.95,123.63,12.751,100.954
1.98,124.25,12.750,100.948
2.02,124.89,12.749,100.942
2.06,125.53,12.749,100.936
2.09,126.17,12.748,100.930
2.13,126.83,12.747,100.925
2.16,127.49,12.746,100.920
2.19,128.17,12.746,100.914
2.23,128.85,12.745,100.908
2.26,129.54,12.744,100.903
2.30,130.23,12.744,100.897
2.34,130.92,12.743,100.892
2.37,131.61,12.742,100.887
2.41,132.30,12.742,100.882
2.44,132.99,12.741,100.877
2.48,133.69,12.740,100.872
2.51,134.39,12.740,100.867
2.54,135.09,12.739,100.862
2.58,135.79,12.739,100.857
2.61,136.49,12.738,100.852
2.65,137.18,12.737,100.847
2.69,137.88,12.737,100.842
2.72,138.58,12.736,100.838
2.76,139.28,12.735,100.833
2.79,139.98,12.735,100.828
2.83,140.68,12.734,100.823
2.86,141.38,12.734,100.819
2.89,142.08,12.733,100.815
2.93,142.78,12.733,100.810
2.96,143.48,12.732,100.805
3.00,144.18,12.731,100.801
3.04,144.88,12.731,100.797
3.07,145.58,12.730,100.792
3.11,146.28,12.730,100.788
3.14,146.98,12.729,100.784
3.18,147.68,12.729,100.780
3.21,148.38,12.728,100.776
3.24,149.08,12.728,100.772
3.28,149.78,12.727,100.769
3.31,150.49,12.727,100.765
3.35,151.19,12.726,100.761
3.39,151.89,12.726,100.756
3.42,152.59,12.725,100.752
3.46,153.29,12.725,100.749
3.49,153.99,12.724,100.745
3.53,154.69,12.724,100.742
[...]
12.56,304.67,12.674,100.343,4.23337e-4
12.58,304.17,12.673,100.342,1.57338e-3
12.60,303.72,12.673,100.341,8.03180e-4
12.62,303.30,12.673,100.341,1.45362e-4
12.65,302.92,12.673,100.340,2.18232e-3
12.67,302.56,12.673,100.340,1.03939e-3
12.69,302.23,12.673,100.340,2.40044e-4
12.71,301.92,12.673,100.340,2.94756e-3
12.73,301.62,12.673,100.339,1.69798e-4
12.75,301.33,12.673,100.338,-1.03371e-4
12.78,301.04,12.673,100.337,2.35326e-3
12.80,300.75,12.673,100.337,2.09705e-3
12.82,300.46,12.673,100.336,5.74223e-4
12.84,300.16,12.673,100.336,2.56907e-3
12.86,299.86,12.673,100.335,2.79936e-3
12.88,299.54,12.673,100.335,-2.14411e-3
12.90,299.21,12.672,100.334,2.40190e-3
12.93,298.86,12.672,100.333,7.13917e-3
12.95,298.50,12.672,100.333,-6.18505e-4
12.97,298.13,12.672,100.332,6.08254e-3
12.99,297.74,12.672,100.331,2.61324e-3
13.01,297.33,12.672,100.331,3.84650e-3
13.03,296.91,12.672,100.329,2.14021e-3
13.06,296.48,12.672,100.328,-1.59965e-4
13.08,296.04,12.672,100.328,1.14888e-3
13.10,295.58,12.672,100.327,3.24608e-4
13.12,295.12,12.672,100.327,-2.12584e-4
13.14,294.65,12.672,100.327,8.20866e-4
13.17,294.18,12.672,100.326,3.56570e-3
13.19,293.70,12.671,100.326,8.71559e-4
13.21,293.22,12.671,100.325,1.26378e-3
13.23,292.74,12.671,100.325,5.39292e-4
13.25,292.27,12.671,100.325,5.20771e-4
13.27,291.79,12.671,100.325,1.88670e-4
13.30,291.32,12.671,100.324,2.94144e-3
13.32,290.85,12.671,100.324,4.91796e-4
13.34,290.39,12.671,100.323,2.51060e-3
13.36,289.94,12.671,100.322,-8.99053e-4
13.38,289.49,12.671,100.322,2.64539e-3
13.40,289.04,12.671,100.322,3.38118e-4
13.43,288.61,12.671,100.321,1.12209e-3
13.45,288.18,12.671,100.321,1.27668e-3
13.47,287.75,12.671,100.320,5.27087e-3
13.49,287.33,12.671,100.321,-2.43009e-3
13.51,286.92,12.671,100.320,2.26508e-3
13.53,286.51,12.671,100.320,1.72871e-3
13.55,286.11,12.671,100.319,1.54748e-3
13.58,285.70,12.671,100.319,2.91615e-3
13.60,285.30,12.671,100.319,-1.19221e-3
13.62,284.90,12.671,100.320,-1.57029e-3
13.64,284.51,12.671,100.319,3.99600e-4
13.66,284.11,12.671,100.319,-2.62315e-3
13.68,283.71,12.671,100.319,1.02319e-3
13.71,283.31,12.671,100.318,3.33665e-3
13.73,282.92,12.671,100.318,4.81397e-3
13.75,282.52,12.670,100.318,-6.67235e-4
13.77,282.11,12.670,100.318,5.17056e-4
13.79,281.71,12.670,100.318,-2.76252e-3
13.82,281.30,12.670,100.318,4.85705e-4
13.84,280.89,12.670,100.318,-4.15524e-3
13.86,280.48,12.671,100.318,4.63434e-3
13.88,280.07,12.670,100.318,4.29622e-4
13.90,279.65,12.670,100.318,3.70239e-3
13.92,279.23,12.670,100.318,-1.18042e-3
13.95,278.81,12.670,100.317,3.76037e-4
13.97,278.39,12.670,100.317,2.05958e-3
13.99,277.96,12.670,100.317,2.31511e-5
14.01,277.54,12.670,100.317,2.32684e-4
14.03,277.11,12.670,100.317,1.16003e-3
14.05,276.68,12.670,100.317,6.94616e-5
14.08,276.25,12.670,100.317,3.63090e-3
14.10,275.82,12.670,100.317,-2.56400e-3
14.12,275.39,12.670,100.317,6.69735e-4
14.14,274.97,12.670,100.317,-3.23402e-3
14.16,274.54,12.670,100.317,-1.64048e-3
14.18,274.11,12.670,100.317,-6.24422e-4
14.20,273.68,12.670,100.317,7.87402e-4
14.23,273.25,12.670,100.317,3.08437e-3
14.25,272.82,12.670,100.317,-2.08844e-4
14.27,272.40,12.670,100.317,7.45209e-4
14.29,271.97,12.670,100.318,-4.43450e-4
14.31,271.55,12.670,100.317,1.16994e-3
14.33,271.12,12.670,100.317,1.14939e-3
14.36,270.70,12.670,100.317,-2.23316e-3
14.38,270.28,12.670,100.316,2.14399e-3
14.40,269.86,12.670,100.316,1.86635e-3
14.42,269.44,12.670,100.316,-1.30165e-3
14.44,269.02,12.670,100.315,-3.57993e-3
14.47,268.60,12.670,100.316,2.70655e-3
14.49,268.19,12.670,100.315,2.21062e-3
14.51,267.77,12.670,100.315,-6.89874e-4
14.53,267.35,12.670,100.315,1.11892e-3
14.55,266.93,12.670,100.315,-1.09524e-3
14.57,266.52,12.670,100.315,1.50000e-3
14.60,266.10,12.670,100.315,1.73759e-3
14.62,265.68,12.670,100.315,-1.14218e-3
14.64,265.27,12.670,100.315,-2.37100e-5
14.66,264.85,12.670,100.315,6.89069e-4
14.68,264.43,12.670,100.314,1.18708e-4
14.70,264.01,12.670,100.315,2.01514e-3
14.73,263.60,12.670,100.315,-1.01839e-3
14.75,263.18,12.670,100.315,2.48397e-3
14.77,262.76,12.670,100.315,-1.60714e-3
14.79,262.34,12.670,100.315,-1.13314e-3
14.81,261.92,12.670,100.315,2.82948e-4
14.83,261.50,12.670,100.315,-5.18237e-4
14.85,261.08,12.670,100.315,2.21370e-8
14.88,260.65,12.670,100.315,-1.36307e-3
14.90,260.23,12.670,100.315,2.81690e-3
14.92,259.81,12.670,100.315,-1.82958e-3
14.94,259.39,12.670,100.315,-8.66917e-4
14.96,258.96,12.670,100.315,9.60203e-4
14.98,258.54,12.670,100.315,1.87266e-3
15.01,258.11,12.670,100.316,-2.33890e-4
15.03,257.69,12.670,100.316,-1.75521e-3
15.05,257.27,12.670,100.317,3.67509e-3
15.07,256.84,12.670,100.316,-2.80899e-4
15.09,256.42,12.670,100.317,-1.54593e-3
15.12,256.00,12.670,100.317,-2.81156e-3
15.14,255.57,12.670,100.317,7.03530e-4
15.16,255.15,12.670,100.317,2.81554e-4
15.18,254.73,12.670,100.317,1.17382e-4
15.20,254.31,12.670,100.318,1.50376e-3
15.22,253.88,12.670,100.317,-1.83420e-3
15.25,253.46,12.670,100.318,2.58784e-4
15.27,253.04,12.670,100.317,-5.41555e-4
15.29,252.62,12.670,100.317,3.53354e-4
15.31,252.20,12.670,100.317,8.25076e-4
15.33,251.78,12.670,100.318,1.50943e-3
15.35,251.36,12.670,100.317,1.48655e-3
15.38,250.94,12.670,100.318,-3.65790e-3
15.40,250.52,12.670,100.317,-4.95592e-4
15.42,250.10,12.670,100.318,2.07703e-3
15.44,249.68,12.670,100.317,9.43841e-5
15.46,249.26,12.670,100.317,2.35960e-4
15.48,248.84,12.670,100.318,-1.65161e-4
15.50,248.42,12.670,100.317,-1.65081e-3
15.53,247.99,12.670,100.317,-2.89991e-3
15.55,247.57,12.670,100.318,4.71809e-5
15.57,247.15,12.670,100.318,1.72008e-3
15.59,246.73,12.670,100.318,9.18603e-4
15.61,246.31,12.670,100.318,-9.65757e-4
15.63,245.89,12.670,100.318,1.64861e-3
15.66,245.47,12.670,100.318,-5.88585e-4
15.68,245.05,12.670,100.318,-1.17645e-4
15.70,244.63,12.670,100.318,-1.43423e-3
15.72,244.20,12.670,100.318,-1.01081e-3
15.74,243.78,12.670,100.318,-2.81950e-4
15.77,243.36,12.670,100.318,-1.50376e-3
15.79,242.94,12.670,100.318,-1.87897e-4
15.81,242.52,12.670,100.318,-2.35271e-5
15.83,242.09,12.670,100.318,2.30155e-3
15.85,241.67,12.670,100.318,1.73739e-3
15.87,241.25,12.670,100.318,1.50213e-3
15.90,240.83,12.671,100.319,-2.06521e-3
15.92,240.40,12.671,100.319,1.03268e-3
15.94,239.98,12.671,100.319,-2.81582e-3
15.96,239.56,12.671,100.320,-1.64270e-3
15.98,239.13,12.671,100.319,-3.98982e-4
16.00,238.71,12.671,100.320,-8.92034e-4
16.03,238.29,12.671,100.320,-3.52227e-4
16.05,237.87,12.671,100.320,-3.99061e-4
16.07,237.44,12.671,100.320,6.33803e-4
16.09,237.02,12.671,100.320,-1.64310e-4
16.11,236.60,12.671,100.320,1.17346e-3
16.13,236.18,12.671,100.320,-1.66628e-3
16.15,235.75,12.671,100.320,-2.34799e-4
16.18,235.33,12.671,100.320,-2.11367e-3
16.20,234.91,12.671,100.320,-1.38604e-3
16.22,234.49,12.671,100.321,2.98377e-3
16.24,234.07,12.671,100.321,-1.05758e-3
16.26,233.64,12.671,100.321,-1.26923e-3
16.28,233.22,12.671,100.322,-2.65663e-3
16.31,232.80,12.671,100.322,1.22295e-3
16.33,232.38,12.671,100.322,-7.76471e-4
16.35,231.96,12.671,100.322,4.47183e-4
16.37,231.54,12.671,100.322,8.94118e-4
16.39,231.11,12.671,100.322,4.94308e-4
16.42,230.69,12.671,100.322,9.41365e-4
16.44,230.27,12.671,100.322,-2.09503e-3
16.46,229.85,12.671,100.323,-4.00308e-4
16.48,229.43,12.671,100.323,1.76571e-3
16.50,229.01,12.671,100.323,-1.12994e-3
16.52,228.59,12.671,100.323,3.76576e-3
16.55,228.16,12.671,100.323,3.52988e-4
16.57,227.74,12.671,100.324,-1.22325e-3
16.59,227.32,12.671,100.324,-2.37615e-3
16.61,226.90,12.671,100.324,-1.24683e-3
16.63,226.48,12.671,100.324,-2.18749e-3
16.65,226.06,12.671,100.325,1.88180e-4
16.68,225.63,12.671,100.325,-2.68142e-3
16.70,225.21,12.671,100.324,-3.92807e-3
16.72,224.79,12.671,100.325,-3.29288e-3
16.74,224.37,12.671,100.325,-1.41090e-3
16.76,223.95,12.671,100.325,9.17094e-4
16.78,223.53,12.671,100.326,-7.75869e-4
16.80,223.10,12.671,100.326,-2.09215e-3
16.83,222.68,12.672,100.327,-3.26732e-3
16.85,222.26,12.672,100.327,1.31606e-3
16.87,221.84,12.672,100.327,-6.11075e-4
16.89,221.42,12.672,100.328,1.64551e-4
16.91,220.99,12.672,100.328,-3.52600e-4
16.93,220.57,12.672,100.328,4.70011e-4
16.96,220.15,12.672,100.328,1.03396e-3
16.98,219.73,12.672,100.328,-1.03374e-3
17.00,219.31,12.672,100.328,-2.34903e-3
17.02,218.88,12.672,100.328,-1.05669e-3
17.04,218.46,12.672,100.328,1.64383e-4
17.07,218.04,12.672,100.329,-8.22075e-4
17.09,217.62,12.672,100.329,1.03363e-3
17.11,217.19,12.672,100.329,-1.76180e-3
17.13,216.77,12.672,100.329,4.69896e-4
17.15,216.35,12.672,100.329,-2.79605e-3
17.17,215.93,12.672,100.329,-5.63890e-4
17.19,215.51,12.672,100.329,5.16758e-4
17.22,215.08,12.672,100.330,1.15066e-3
17.24,214.66,12.672,100.330,-9.15581e-4
17.26,214.24,12.672,100.330,-2.88661e-3
17.27,214.11,12.672,100.330,2.58152e-3