File: instrument_data/TGA/Co(phen)2(SCN)2 electromagnet RT-40011142022.csv
Filename,Co(phen)2(SCN)2 electromagnet RT-40011142022
Instrument name,5500-0566 (192.168.10.4)
Operator,Adam K
rundate,11/14/2022
Sample name,Co(phen)2(SCN)2 electromagnet RT-400
proceduresegments,Equilibrate 110.00 °C; Isothermal 1.0 min; Electromagnet On 50.0 %; Ramp 60.00 °C/min to 400.00 °C
[File Parameters]
Run date,11/14/2022 4:16:59 PM
Trios version,5.3.0.48151
Original File Name,C:\ProgramData\TA Instruments\TRIOS\Data\CH302_B3_22_AK\Co(phen)2(SCN)2 electromagnet RT-40011142022.tri
Current File Name,C:/ProgramData/TA Instruments/TRIOS/Data/CH302_B3_22_AK/Co(phen)2(SCN)2 electromagnet RT-40011142022.tri
User at run start,CH-CBWNNF3-0721\ChemLocal
[Procedure]
Procedure Name,
Sample Name,Co(phen)2(SCN)2 electromagnet RT-400
Pan Number,4
Sample Mass,5.824 mg
Pan Type,Aluminum
Comments,
Project Name,Spin Crossover
Operator,Adam K
Test,Custom
Skip Weight Stabilization,False
Sample mass pre-weigh,Not Available
Stop on Gas Flow Error,No
[Signal List]
Signal #1,Time (min)
Signal #2,Temperature (°C)
Signal #3,Weight (mg)
Signal #4,Temperature Difference (°C)
Signal #5,Sample Purge (mL/min)
Signal #6,Balance Purge (mL/min)
Signal #7,Set Point Temperature (°C)
Signal #8,Power Delivered (W)
Signal #9,Ramp Rate (°C/min)
[Configuration]
Company Name,localcc
Instrument Name,5500-0566
Instrument Type,TGA5500
Serial Number,5500-0566
IP,192.168.10.4
Location of Instrument,Olin Hall Rm 364
DisplayType,TianmaV2
Sample Interval ,0.1 s/pt
Gas 1,Nitrogen
Gas 2,Air
Selected Gas Channel,1
MTGA HiRes Licensed,Yes
[Versions]
Common IDD Version,1
Cortex Version,VER 2.1.2.60
Driver,5.0.0.6
GDM Version,1.2.1.2
TouchscreenVersion,1.0.3.1795
PCU Version,1.2.0.15
Transducer Version,1.1.0.32
[Experiment Logs]
Experiment Log Entry # 1,Equilibrate Segment 110 (C) Started
Experiment Log Entry # 3,Isothermal Segment 1 min started
Experiment Log Entry # 5,"Curie Magnet Segment enable 1, 50 %"
Experiment Log Entry # 7,Ramp Segment 60 C/min to 400 C Started
[Method Log]
Method Log Entry # 1,Equilibrate 110 °C
Method Log Entry # 2,Isothermal 1 minutes
Method Log Entry # 3,Electromagnet On 50 %
Method Log Entry # 4,(Ramp 9011) Ramp 60 °C/minute to 400 °C
[Weight Calibration]
Date Applied,7/20/2022 10:21:44 AM
Empty Pan Number,23
Empty Pan Weight,341.358 mg
Low Reference Weight Pan Number,24
Low Reference Weight,442.546 mg
High Reference Weight Pan Number,25
High Reference Weight,"1,243.774 mg"
Low Gain Meter Reading,9.9772E-006 mg/count
High Gain Meter Reading,7.9459E-005 mg/count
Low Meter Offset,31.8759 mg
High Meter Offset,613.7978 mg
[Curie Calibration]
Date Applied,8/11/2021 12:40:46 PM
Description,From 256.990 °C to 456.990 °C at 20.000°C/min
Gas Type,Nitrogen
Pan Type,Platinum (100 uL)
Source Files 1,C:\ProgramData\TA Instruments\TRIOS\Data\Nickel Calibration.tri
Source Files 2,C:\ProgramData\TA Instruments\TRIOS\Data\Alumel Calibration.tri
Measured 1,158.9083
Known 1,154.16
Measured 2,358.1255
Known 2,356.99
[step]
Isothermal 1.0 min
Time,Temperature,Weight,Weight
min,°C,mg,%
0.00,110.16,5.775,99.161
0.00,110.16,5.775,99.160
0.01,110.17,5.775,99.160
0.01,110.17,5.775,99.159
0.01,110.17,5.775,99.159
0.02,110.18,5.775,99.159
0.02,110.18,5.775,99.159
0.02,110.18,5.775,99.158
0.03,110.18,5.775,99.158
0.03,110.19,5.775,99.158
0.03,110.19,5.775,99.157
0.04,110.19,5.775,99.157
0.04,110.19,5.775,99.156
0.04,110.20,5.775,99.156
0.05,110.20,5.775,99.156
0.05,110.20,5.775,99.156
0.05,110.20,5.775,99.156
0.06,110.20,5.775,99.155
0.06,110.21,5.775,99.155
0.06,110.21,5.775,99.155
0.07,110.21,5.775,99.155
0.07,110.21,5.775,99.154
0.07,110.22,5.775,99.154
0.08,110.22,5.775,99.154
0.08,110.22,5.775,99.153
0.08,110.22,5.775,99.153
0.09,110.23,5.775,99.153
0.09,110.23,5.775,99.153
0.09,110.23,5.775,99.153
0.10,110.23,5.775,99.153
0.10,110.23,5.775,99.153
0.10,110.24,5.775,99.152
0.11,110.24,5.775,99.152
0.11,110.24,5.775,99.152
0.11,110.24,5.775,99.152
0.12,110.24,5.775,99.151
0.12,110.25,5.775,99.152
0.12,110.25,5.775,99.152
0.13,110.25,5.775,99.151
0.13,110.25,5.775,99.151
0.13,110.25,5.775,99.151
0.14,110.26,5.775,99.151
0.14,110.26,5.775,99.150
0.14,110.26,5.775,99.150
0.15,110.26,5.775,99.150
0.15,110.26,5.775,99.150
0.15,110.27,5.774,99.149
0.16,110.27,5.774,99.149
0.16,110.27,5.774,99.149
0.16,110.27,5.774,99.149
0.17,110.27,5.774,99.148
0.17,110.28,5.774,99.148
0.17,110.28,5.774,99.148
0.18,110.28,5.774,99.148
0.18,110.28,5.774,99.148
0.18,110.28,5.774,99.147
0.19,110.28,5.774,99.147
0.19,110.29,5.774,99.146
0.19,110.29,5.774,99.146
0.20,110.29,5.774,99.146
0.20,110.29,5.774,99.146
0.20,110.29,5.774,99.145
0.21,110.30,5.774,99.146
0.21,110.30,5.774,99.145
0.21,110.30,5.774,99.145
0.22,110.30,5.774,99.145
0.22,110.30,5.774,99.145
0.22,110.30,5.774,99.144
0.23,110.31,5.774,99.144
0.23,110.31,5.774,99.143
0.23,110.31,5.774,99.143
0.24,110.31,5.774,99.143
0.24,110.31,5.774,99.144
0.24,110.31,5.774,99.143
0.25,110.31,5.774,99.142
0.25,110.32,5.774,99.142
0.25,110.32,5.774,99.142
0.26,110.32,5.774,99.141
0.26,110.32,5.774,99.142
0.26,110.32,5.774,99.142
0.27,110.32,5.774,99.141
0.27,110.33,5.774,99.141
0.27,110.33,5.774,99.141
0.28,110.33,5.774,99.141
0.28,110.33,5.774,99.141
0.28,110.33,5.774,99.141
0.29,110.33,5.774,99.141
0.29,110.33,5.774,99.141
0.29,110.34,5.774,99.141
0.30,110.34,5.774,99.141
0.30,110.34,5.774,99.141
0.30,110.34,5.774,99.141
0.31,110.34,5.774,99.140
0.31,110.34,5.774,99.140
0.31,110.34,5.774,99.140
0.32,110.35,5.774,99.140
0.32,110.35,5.774,99.140
0.32,110.35,5.774,99.140
0.33,110.35,5.774,99.140
0.33,110.35,5.774,99.140
0.33,110.35,5.774,99.140
0.34,110.35,5.774,99.140
0.34,110.35,5.774,99.140
0.34,110.36,5.774,99.139
0.35,110.36,5.774,99.139
0.35,110.36,5.774,99.138
0.35,110.36,5.774,99.138
0.36,110.36,5.774,99.138
0.36,110.36,5.774,99.138
0.36,110.36,5.774,99.138
0.37,110.36,5.774,99.138
0.37,110.36,5.774,99.138
0.37,110.37,5.774,99.137
0.38,110.37,5.774,99.137
0.38,110.37,5.774,99.137
0.38,110.37,5.774,99.137
0.39,110.37,5.774,99.136
0.39,110.37,5.774,99.136
0.39,110.37,5.774,99.136
0.40,110.37,5.774,99.136
0.40,110.37,5.774,99.136
0.40,110.38,5.774,99.135
0.41,110.38,5.774,99.135
0.41,110.38,5.774,99.135
0.41,110.38,5.774,99.135
0.42,110.38,5.774,99.134
0.42,110.38,5.774,99.134
0.42,110.38,5.774,99.134
0.43,110.38,5.774,99.134
0.43,110.38,5.774,99.134
0.43,110.38,5.774,99.134
0.44,110.39,5.774,99.134
0.44,110.39,5.774,99.133
0.44,110.39,5.774,99.133
0.45,110.39,5.774,99.133
0.45,110.39,5.773,99.132
0.45,110.39,5.773,99.132
0.46,110.39,5.773,99.132
0.46,110.39,5.773,99.132
0.46,110.39,5.773,99.132
0.47,110.39,5.773,99.132
0.47,110.39,5.773,99.131
0.47,110.40,5.773,99.131
0.48,110.40,5.773,99.131
0.48,110.40,5.773,99.131
0.48,110.40,5.773,99.130
0.49,110.40,5.773,99.130
0.49,110.40,5.773,99.130
0.49,110.40,5.773,99.131
0.50,110.40,5.773,99.131
0.50,110.40,5.773,99.130
0.50,110.40,5.773,99.130
0.51,110.40,5.773,99.130
0.51,110.40,5.773,99.131
0.51,110.40,5.773,99.131
0.52,110.41,5.773,99.130
0.52,110.41,5.773,99.130
0.52,110.41,5.773,99.130
0.53,110.41,5.773,99.130
0.53,110.41,5.773,99.129
0.53,110.41,5.773,99.129
0.54,110.41,5.773,99.129
0.54,110.41,5.773,99.129
0.54,110.41,5.773,99.129
0.55,110.41,5.773,99.128
0.55,110.41,5.773,99.128
0.55,110.41,5.773,99.128
0.56,110.41,5.773,99.128
0.56,110.41,5.773,99.128
0.56,110.41,5.773,99.127
0.57,110.41,5.773,99.127
0.57,110.42,5.773,99.127
0.57,110.42,5.773,99.127
0.58,110.42,5.773,99.127
0.58,110.42,5.773,99.127
0.58,110.42,5.773,99.127
0.59,110.42,5.773,99.127
0.59,110.42,5.773,99.126
0.59,110.42,5.773,99.127
0.60,110.42,5.773,99.127
0.60,110.42,5.773,99.126
0.60,110.42,5.773,99.126
0.61,110.42,5.773,99.126
0.61,110.42,5.773,99.126
0.61,110.42,5.773,99.126
0.62,110.42,5.773,99.126
0.62,110.42,5.773,99.126
0.62,110.42,5.773,99.126
0.63,110.42,5.773,99.126
0.63,110.42,5.773,99.127
0.63,110.43,5.773,99.127
0.64,110.43,5.773,99.126
0.64,110.43,5.773,99.126
0.64,110.43,5.773,99.126
0.65,110.43,5.773,99.126
0.65,110.43,5.773,99.126
0.65,110.43,5.773,99.126
0.66,110.43,5.773,99.125
0.66,110.43,5.773,99.125
0.66,110.43,5.773,99.125
0.67,110.43,5.773,99.125
0.67,110.43,5.773,99.125
0.67,110.43,5.773,99.125
0.68,110.43,5.773,99.125
0.68,110.43,5.773,99.124
0.68,110.43,5.773,99.124
0.69,110.43,5.773,99.124
0.69,110.43,5.773,99.124
0.69,110.43,5.773,99.124
0.70,110.43,5.773,99.124
0.70,110.43,5.773,99.124
0.70,110.43,5.773,99.124
0.71,110.43,5.773,99.124
0.71,110.43,5.773,99.123
0.71,110.43,5.773,99.123
0.72,110.43,5.773,99.122
0.72,110.43,5.773,99.123
0.72,110.44,5.773,99.123
0.73,110.44,5.773,99.123
0.73,110.44,5.773,99.124
0.73,110.44,5.773,99.123
0.74,110.44,5.773,99.123
0.74,110.44,5.773,99.123
0.74,110.44,5.773,99.123
0.75,110.44,5.773,99.123
0.75,110.44,5.773,99.123
0.75,110.44,5.773,99.122
0.76,110.44,5.773,99.122
0.76,110.44,5.773,99.122
0.76,110.44,5.773,99.122
0.77,110.44,5.773,99.122
0.77,110.44,5.773,99.121
0.77,110.44,5.773,99.121
0.78,110.44,5.773,99.121
0.78,110.44,5.773,99.121
0.78,110.44,5.773,99.121
0.79,110.44,5.773,99.121
0.79,110.44,5.773,99.121
0.79,110.44,5.773,99.121
0.80,110.44,5.773,99.121
0.80,110.44,5.773,99.121
0.80,110.44,5.773,99.120
0.81,110.44,5.773,99.120
0.81,110.44,5.773,99.120
0.81,110.44,5.773,99.120
0.82,110.44,5.773,99.119
0.82,110.44,5.773,99.119
0.82,110.44,5.773,99.120
0.83,110.44,5.773,99.120
0.83,110.44,5.773,99.119
0.83,110.44,5.773,99.119
0.84,110.44,5.773,99.119
0.84,110.44,5.773,99.119
0.84,110.44,5.773,99.119
0.85,110.44,5.773,99.119
0.85,110.44,5.773,99.119
0.85,110.44,5.773,99.119
0.86,110.44,5.773,99.119
0.86,110.44,5.773,99.119
0.86,110.44,5.773,99.119
0.87,110.44,5.773,99.119
0.87,110.44,5.773,99.118
0.87,110.44,5.773,99.118
0.88,110.44,5.773,99.118
0.88,110.44,5.773,99.118
0.88,110.44,5.773,99.118
0.89,110.44,5.773,99.117
0.89,110.44,5.773,99.118
0.89,110.44,5.773,99.118
0.90,110.44,5.773,99.117
0.90,110.44,5.773,99.117
0.90,110.44,5.773,99.117
0.91,110.44,5.773,99.117
0.91,110.44,5.773,99.118
0.91,110.44,5.773,99.118
0.92,110.44,5.773,99.118
0.92,110.44,5.773,99.118
0.92,110.44,5.773,99.117
0.93,110.44,5.773,99.117
0.93,110.44,5.773,99.117
0.93,110.44,5.773,99.117
0.94,110.44,5.773,99.117
0.94,110.44,5.773,99.117
0.94,110.44,5.773,99.117
0.95,110.44,5.773,99.116
0.95,110.44,5.773,99.116
0.95,110.44,5.773,99.116
0.96,110.44,5.773,99.117
0.96,110.44,5.773,99.116
0.96,110.44,5.773,99.116
0.97,110.44,5.773,99.116
0.97,110.44,5.773,99.116
0.97,110.44,5.773,99.116
0.98,110.44,5.773,99.116
0.98,110.44,5.773,99.116
0.98,110.44,5.773,99.115
0.99,110.44,5.772,99.115
0.99,110.44,5.772,99.115
0.99,110.44,5.772,99.115
1.00,110.44,5.773,99.115
1.00,110.44,5.772,99.115

[step]
Ramp 60.00 °C/min to 400.00 °C
Time,Temperature,Weight,Weight,Deriv. Weight
min,°C,mg,%,% / °C
1.00,110.44,5.772,99.115,-1499.63
1.02,110.44,5.886,101.061,352.683
1.04,110.45,5.890,101.134,9.06109
1.06,110.47,5.890,101.134,-1.09044
1.08,110.53,5.891,101.143,0.0834781
1.10,110.64,5.891,101.147,-0.0821108
1.12,110.82,5.890,101.140,0.0113511
1.14,111.08,5.890,101.141,7.39433e-3
1.16,111.42,5.891,101.143,4.95880e-3
1.18,111.84,5.891,101.143,2.10547e-3
1.20,112.33,5.891,101.143,3.18103e-4
1.22,112.90,5.891,101.143,-3.08718e-4
1.24,113.53,5.891,101.142,-1.52021e-3
1.26,114.22,5.891,101.142,-1.45017e-3
1.28,114.97,5.890,101.141,-5.05413e-3
1.30,115.77,5.890,101.140,-5.02807e-4
1.32,116.61,5.890,101.138,-2.98305e-3
1.34,117.51,5.890,101.137,-2.72246e-3
1.36,118.44,5.890,101.134,-1.67196e-3
1.38,119.41,5.890,101.132,-1.07579e-3
1.40,120.41,5.890,101.129,-1.48815e-3
1.42,121.44,5.890,101.128,-2.18052e-3
1.44,122.49,5.890,101.126,-3.92127e-3
1.46,123.55,5.889,101.123,-1.29178e-3
1.48,124.63,5.889,101.121,-3.33431e-3
1.50,125.71,5.889,101.117,-1.77605e-3
1.52,126.81,5.889,101.114,-1.35233e-3
1.54,127.92,5.889,101.111,-3.68896e-3
1.56,129.04,5.889,101.109,-1.96875e-3
1.58,130.17,5.888,101.106,-2.48152e-3
1.60,131.31,5.888,101.103,-1.70024e-3
1.62,132.46,5.888,101.101,-2.35297e-3
1.64,133.62,5.888,101.098,-3.05593e-3
1.66,134.79,5.888,101.094,-1.32551e-3
1.68,135.96,5.888,101.092,-2.55935e-3
1.70,137.13,5.887,101.088,-7.11605e-4
1.72,138.30,5.887,101.086,-2.68157e-3
1.74,139.47,5.887,101.082,-2.50851e-3
1.76,140.64,5.887,101.078,-3.38786e-3
1.78,141.81,5.887,101.076,-1.12156e-3
1.80,142.99,5.886,101.073,-2.29785e-3
1.82,144.17,5.886,101.070,-2.65971e-3
1.84,145.36,5.886,101.066,-5.62905e-3
1.86,146.55,5.886,101.063,-1.23546e-3
1.88,147.75,5.886,101.061,-2.22771e-3
1.90,148.94,5.886,101.057,-2.92934e-3
1.92,150.14,5.885,101.054,-1.89762e-3
1.94,151.34,5.885,101.052,-1.56327e-3
1.96,152.53,5.885,101.047,-2.46441e-3
1.98,153.72,5.885,101.045,-1.93030e-3
2.00,154.91,5.885,101.042,-2.84791e-3
2.02,156.10,5.885,101.039,-2.52364e-3
2.04,157.29,5.884,101.036,-1.65913e-3
2.06,158.48,5.884,101.034,-1.67768e-3
2.08,159.68,5.884,101.031,-9.32038e-4
2.10,160.88,5.884,101.030,-1.66128e-3
2.12,162.08,5.884,101.026,-2.19126e-3
2.14,163.29,5.884,101.023,-3.84147e-3
2.16,164.49,5.883,101.020,-3.00747e-3
2.18,165.69,5.883,101.016,-1.72432e-3
2.20,166.89,5.883,101.014,-2.55440e-3
2.22,168.09,5.883,101.012,-1.90031e-3
2.24,169.28,5.883,101.008,-1.01252e-3
2.26,170.47,5.883,101.005,-3.13651e-3
2.28,171.67,5.882,101.001,-2.04437e-3
2.30,172.86,5.882,101.000,-1.09997e-3
2.32,174.07,5.882,100.996,-2.39228e-3
2.34,175.27,5.882,100.994,-3.46690e-3
2.36,176.47,5.882,100.991,-2.40753e-3
2.38,177.68,5.882,100.990,-2.26370e-3
2.40,178.88,5.881,100.986,-2.09964e-3
2.42,180.09,5.881,100.985,-2.50075e-3
2.44,181.28,5.881,100.983,-8.33233e-4
2.46,182.48,5.881,100.979,-1.72328e-3
2.48,183.68,5.881,100.976,-1.41802e-3
2.50,184.87,5.881,100.974,-2.00750e-3
2.52,186.07,5.881,100.970,-2.92186e-3
2.54,187.26,5.880,100.967,-1.49556e-3
2.56,188.47,5.880,100.965,-1.91061e-3
2.58,189.67,5.880,100.962,-1.98336e-3
2.60,190.87,5.880,100.960,-2.58938e-3
2.62,192.08,5.880,100.957,-2.00592e-3
2.64,193.28,5.880,100.954,-3.63084e-3
2.66,194.49,5.879,100.951,-1.89972e-3
2.68,195.68,5.879,100.948,-1.82012e-3
2.70,196.88,5.879,100.944,-1.21030e-3
2.72,198.08,5.879,100.943,-1.10359e-3
2.74,199.27,5.879,100.941,-3.43030e-3
2.76,200.47,5.879,100.938,-1.68120e-3
2.78,201.67,5.878,100.934,-1.99719e-3
2.80,202.87,5.878,100.933,6.69309e-4
2.82,204.07,5.878,100.931,-1.28382e-3
2.84,205.28,5.878,100.929,-4.30687e-3
2.86,206.48,5.878,100.925,-3.25412e-3
2.88,207.69,5.878,100.924,-1.04370e-3
2.90,208.89,5.878,100.921,-2.34395e-3
2.92,210.08,5.878,100.918,-2.48623e-3
2.94,211.28,5.877,100.915,-2.40473e-3
2.96,212.48,5.877,100.913,-3.10895e-3
2.98,213.67,5.877,100.910,-2.98316e-4
3.00,214.87,5.877,100.908,-3.04545e-3
3.02,216.07,5.877,100.904,-2.62749e-3
3.04,217.27,5.877,100.903,-1.54352e-3
3.06,218.48,5.877,100.901,-1.64122e-3
3.08,219.68,5.876,100.899,-7.67900e-4
3.10,220.89,5.876,100.897,-3.23595e-3
3.12,222.09,5.876,100.894,-2.11360e-3
3.14,223.29,5.876,100.892,-3.96816e-3
3.16,224.48,5.876,100.889,-1.21724e-3
3.18,225.68,5.876,100.889,-8.11837e-4
3.20,226.88,5.876,100.886,-2.29723e-5
3.22,228.07,5.875,100.884,-2.84124e-3
3.24,229.27,5.875,100.882,-4.07008e-3
3.26,230.47,5.875,100.880,-4.03240e-3
3.28,231.68,5.875,100.877,-2.50064e-3
3.30,232.88,5.875,100.874,-3.03286e-3
3.32,234.09,5.875,100.872,-2.45812e-3
3.34,235.29,5.875,100.870,-6.86229e-4
3.36,236.49,5.875,100.867,-1.96390e-3
3.38,237.69,5.874,100.865,-2.45685e-3
3.40,238.88,5.874,100.863,6.96931e-4
3.42,240.08,5.874,100.861,-1.01806e-3
3.44,241.27,5.874,100.860,-9.63102e-4
3.46,242.47,5.874,100.860,1.81533e-3
3.48,243.67,5.874,100.859,-1.93383e-3
3.50,244.88,5.874,100.855,-3.49054e-3
3.52,246.08,5.874,100.854,-1.07985e-3
3.54,247.28,5.874,100.853,-1.25588e-3
3.56,248.49,5.874,100.851,-1.59344e-3
3.58,249.69,5.874,100.850,-2.11584e-3
3.60,250.88,5.873,100.849,-9.94416e-4
3.62,252.08,5.873,100.848,-2.41880e-3
3.64,253.28,5.873,100.846,-8.64630e-4
3.66,254.47,5.873,100.845,-1.03181e-3
3.68,255.67,5.873,100.844,-7.63533e-5
3.70,256.87,5.873,100.842,-1.59881e-4
3.72,258.08,5.873,100.843,-7.15155e-4
3.74,259.28,5.873,100.840,-4.35107e-3
3.76,260.48,5.873,100.838,1.72797e-3
3.78,261.69,5.873,100.837,-2.66049e-3
3.80,262.89,5.873,100.834,-2.79494e-3
3.82,264.08,5.873,100.833,-1.26185e-3
3.84,265.28,5.872,100.832,-1.55374e-3
3.86,266.48,5.872,100.830,-1.12478e-3
3.88,267.67,5.872,100.829,-4.73949e-4
3.90,268.87,5.872,100.826,-1.92320e-3
3.92,270.07,5.872,100.824,-2.71231e-3
3.94,271.27,5.872,100.823,-1.86437e-3
3.96,272.48,5.872,100.821,-1.05730e-3
3.98,273.68,5.872,100.820,-1.07329e-3
4.00,274.88,5.872,100.818,-1.57004e-3
4.02,276.08,5.872,100.816,-1.76344e-3
4.04,277.28,5.871,100.814,-1.37580e-4
4.06,278.48,5.871,100.813,-3.67197e-4
4.08,279.68,5.871,100.812,-2.09583e-3
4.10,280.87,5.871,100.811,-1.39095e-3
4.12,282.07,5.871,100.809,-1.73271e-3
4.14,283.27,5.871,100.806,1.74539e-3
4.16,284.47,5.871,100.804,-2.65722e-3
4.18,285.68,5.871,100.803,8.60180e-4
4.20,286.88,5.871,100.803,-1.70592e-3
4.22,288.08,5.871,100.800,-1.98197e-4
4.24,289.28,5.871,100.798,-3.58842e-4
4.26,290.48,5.870,100.797,-4.20404e-4
4.28,291.68,5.870,100.797,-2.29441e-3
4.30,292.87,5.870,100.795,-3.94578e-3
4.32,294.07,5.870,100.793,-1.48242e-3
4.34,295.27,5.870,100.792,-3.35853e-4
4.36,296.47,5.870,100.789,1.32644e-3
4.38,297.67,5.870,100.788,-2.74223e-4
4.40,298.87,5.870,100.786,-1.64519e-3
4.42,300.08,5.870,100.787,-1.89753e-3
4.44,301.28,5.870,100.784,-1.46457e-3
4.46,302.48,5.870,100.782,-6.26223e-4
4.48,303.67,5.870,100.781,-1.60507e-4
4.50,304.87,5.869,100.778,-9.48012e-4
4.52,306.07,5.869,100.778,-1.49805e-3
4.54,307.27,5.869,100.778,-1.65705e-3
4.56,308.47,5.869,100.775,-1.70097e-3
4.58,309.67,5.869,100.772,-9.44855e-4
4.60,310.87,5.869,100.771,-9.13798e-5
4.62,312.07,5.869,100.768,-1.03576e-3
4.64,313.27,5.869,100.767,-2.43866e-3
4.66,314.48,5.869,100.765,-2.14362e-3
4.68,315.67,5.868,100.763,-1.32116e-3
4.70,316.87,5.868,100.761,2.44533e-4
4.72,318.07,5.868,100.761,2.29358e-4
4.74,319.27,5.868,100.759,-2.94992e-3
4.76,320.47,5.868,100.759,-2.99290e-3
4.78,321.67,5.868,100.755,-9.68501e-4
4.80,322.87,5.868,100.753,-2.65145e-3
4.82,324.07,5.868,100.750,-2.22435e-3
4.84,325.27,5.868,100.747,-7.84927e-4
4.86,326.47,5.867,100.746,-2.51698e-3
4.88,327.67,5.867,100.742,-5.59631e-3
4.90,328.87,5.867,100.738,-4.07303e-3
4.92,330.07,5.867,100.734,-4.30390e-3
4.94,331.27,5.867,100.730,-3.36258e-3
4.96,332.46,5.866,100.727,-3.54329e-3
4.98,333.66,5.866,100.722,-2.34971e-3
5.00,334.86,5.866,100.718,-3.43005e-3
5.02,336.07,5.866,100.714,-2.78092e-3
5.04,337.27,5.865,100.711,-3.99304e-3
5.06,338.47,5.865,100.707,-2.21153e-3
5.08,339.67,5.865,100.703,-4.10722e-3
5.10,340.87,5.865,100.699,-2.23132e-3
5.12,342.06,5.864,100.694,-2.40807e-3
5.14,343.26,5.864,100.691,-3.80676e-3
5.16,344.46,5.864,100.687,-5.80597e-3
5.18,345.66,5.864,100.682,-5.24398e-3
5.20,346.86,5.863,100.677,-4.01124e-3
5.22,348.06,5.863,100.671,-6.19665e-3
5.24,349.26,5.863,100.665,-4.13848e-3
5.26,350.46,5.862,100.659,-2.98171e-3
5.28,351.66,5.862,100.656,-6.25060e-3
5.30,352.86,5.862,100.651,-5.36236e-3
5.32,354.06,5.862,100.644,-4.80692e-3
5.34,355.26,5.861,100.635,-7.83448e-3
5.36,356.46,5.861,100.627,-5.65373e-3
5.38,357.65,5.860,100.618,-0.0151537
5.40,358.85,5.859,100.607,-8.04703e-3
5.42,360.05,5.859,100.597,-8.05078e-3
5.44,361.26,5.858,100.586,-0.0119901
5.46,362.46,5.857,100.574,-9.27961e-3
5.48,363.66,5.856,100.557,-0.0124981
5.50,364.86,5.856,100.542,-0.0133094
5.52,366.05,5.855,100.525,-0.0155539
5.54,367.25,5.854,100.506,-0.0177350
5.56,368.45,5.852,100.481,-0.0160504
5.58,369.65,5.850,100.452,-0.0190428
5.60,370.85,5.848,100.418,-0.0286433
5.62,372.05,5.846,100.385,-0.0522618
5.64,373.25,5.844,100.344,-0.0299206
5.66,374.45,5.841,100.284,-0.0478300
5.68,375.65,5.839,100.249,-0.0630435
5.70,376.85,5.834,100.179,-0.0310676
5.72,378.05,5.830,100.110,-0.0416438
5.74,379.25,5.826,100.040,-0.0610508
5.76,380.45,5.822,99.974,-0.0547861
5.78,381.65,5.818,99.888,-0.0566424
5.80,382.84,5.812,99.789,-0.0979090
5.82,384.04,5.807,99.699,-0.0551232
5.84,385.25,5.800,99.579,-0.112520
5.86,386.45,5.794,99.480,-0.100671
5.87,387.15,5.791,99.437,-0.0647894