File: instrument_data/TGA/Co(phen)2(SCN)2 1172022.csv
Filename,Co(phen)2(SCN)2 1172022
Instrument name,5500-0566 (192.168.10.4)
Operator,Adam K
rundate,11/7/2022
Sample name,Co(phen)2(SCN)2
proceduresegments,Ramp 20.00 °C/min to 1200.00 °C
[File Parameters]
Run date,11/7/2022 11:31:23 AM
Trios version,5.3.0.48151
Original File Name,C:\ProgramData\TA Instruments\TRIOS\Data\CH302_B3_22_AK\Co(phen)2(SCN)2 1172022.tri
Current File Name,C:/ProgramData/TA Instruments/TRIOS/Data/CH302_B3_22_AK/Co(phen)2(SCN)2 1172022.tri
User at run start,CH-CBWNNF3-0721\ChemLocal
[Procedure]
Procedure Name,Ramp
Sample Name,Co(phen)2(SCN)2
Pan Number,1
Sample Mass,9.873 mg
Pan Type,Alumina (100 uL)
Comments,RT-1200C - Looking for decomposition.
Project Name,Dr. Bowman - Spin Crossover Research
Operator,Adam K
Test,Ramp
Skip Weight Stabilization,False
Sample mass pre-weigh,Not Available
Stop on Gas Flow Error,No
[Signal List]
Signal #1,Time (min)
Signal #2,Temperature (°C)
Signal #3,Weight (mg)
Signal #4,Temperature Difference (°C)
Signal #5,Sample Purge (mL/min)
Signal #6,Balance Purge (mL/min)
Signal #7,Set Point Temperature (°C)
Signal #8,Power Delivered (W)
Signal #9,Ramp Rate (°C/min)
[Configuration]
Company Name,localcc
Instrument Name,5500-0566
Instrument Type,TGA5500
Serial Number,5500-0566
IP,192.168.10.4
Location of Instrument,Olin Hall Rm 364
DisplayType,TianmaV2
Sample Interval ,0.1 s/pt
Gas 1,Nitrogen
Gas 2,Air
Selected Gas Channel,1
MTGA HiRes Licensed,Yes
[Versions]
Common IDD Version,1
Cortex Version,VER 2.1.2.60
Driver,5.0.0.6
GDM Version,1.2.1.2
TouchscreenVersion,1.0.3.1795
PCU Version,1.2.0.15
Transducer Version,1.1.0.32
[Experiment Logs]
Experiment Log Entry # 1,Ramp Segment 20 C/min to 1200 C Started
Experiment Log Entry # 3,Ending Experiment because user stopped
Experiment Log Entry # 5,Ending Experiment
[Method Log]
Method Log Entry # 1,(Ramp 1814) Ramp 20 °C/minute to 1200 °C
[Weight Calibration]
Date Applied,7/20/2022 10:21:44 AM
Empty Pan Number,23
Empty Pan Weight,341.358 mg
Low Reference Weight Pan Number,24
Low Reference Weight,442.546 mg
High Reference Weight Pan Number,25
High Reference Weight,"1,243.774 mg"
Low Gain Meter Reading,9.9772E-006 mg/count
High Gain Meter Reading,7.9459E-005 mg/count
Low Meter Offset,31.8759 mg
High Meter Offset,613.7978 mg
[Curie Calibration]
Date Applied,8/11/2021 12:40:46 PM
Description,From 256.990 °C to 456.990 °C at 20.000°C/min
Gas Type,Nitrogen
Pan Type,Platinum (100 uL)
Source Files 1,C:\ProgramData\TA Instruments\TRIOS\Data\Nickel Calibration.tri
Source Files 2,C:\ProgramData\TA Instruments\TRIOS\Data\Alumel Calibration.tri
Measured 1,158.9083
Known 1,154.16
Measured 2,358.1255
Known 2,356.99
[step]
Ramp 20.00 °C/min to 1200.00 °C
Time,Temperature,Weight,Weight,Deriv. Weight
min,°C,mg,%,% / °C
0.00,20.27,9.873,100.000,-4.64865
0.10,20.27,9.873,99.999,-0.123050
0.19,20.30,9.873,99.993,-0.149705
0.29,20.53,9.872,99.985,-0.0254067
0.39,21.22,9.871,99.976,-0.0120127
0.48,22.52,9.870,99.963,-0.0103299
0.58,24.09,9.868,99.948,-6.29862e-3
0.68,25.78,9.867,99.937,-8.54936e-3
0.77,27.61,9.866,99.928,-4.41017e-3
0.87,29.51,9.865,99.921,-3.81419e-3
0.97,31.43,9.865,99.915,-2.19221e-3
1.06,33.36,9.864,99.910,-3.93244e-3
1.16,35.31,9.864,99.905,-8.14307e-4
1.26,37.27,9.863,99.900,-4.12979e-3
1.35,39.22,9.863,99.895,-1.60805e-3
1.45,41.18,9.862,99.888,-1.51383e-3
1.55,43.13,9.861,99.881,-2.96645e-3
1.64,45.09,9.861,99.873,-6.52985e-3
1.74,47.04,9.860,99.864,-7.04505e-3
1.84,48.99,9.859,99.854,-4.51071e-3
1.93,50.94,9.858,99.844,-6.31023e-3
2.03,52.89,9.857,99.832,-5.28908e-3
2.13,54.84,9.855,99.820,-9.58647e-3
2.22,56.79,9.854,99.805,-8.36897e-3
2.32,58.73,9.852,99.789,-0.0121876
2.42,60.68,9.850,99.763,-0.0148104
2.51,62.62,9.847,99.735,-0.0126486
2.61,64.56,9.844,99.709,-0.0152409
2.71,66.50,9.842,99.685,-9.83147e-3
2.80,68.44,9.841,99.673,-5.13347e-3
2.90,70.39,9.839,99.658,-7.64577e-3
3.00,72.33,9.838,99.638,-0.0116394
3.09,74.27,9.835,99.615,-0.0120584
3.19,76.21,9.833,99.589,-0.0182857
3.29,78.14,9.830,99.561,-0.0180771
3.38,80.08,9.826,99.524,-0.0201810
3.48,82.02,9.823,99.489,-0.0102574
3.58,83.95,9.820,99.459,-0.0186621
3.67,85.89,9.816,99.425,-0.0163597
3.77,87.82,9.813,99.391,-0.0196150
3.87,89.76,9.809,99.354,-0.0199977
3.96,91.69,9.806,99.315,-0.0239898
4.06,93.63,9.801,99.273,-0.0207160
4.16,95.56,9.797,99.232,-0.0211797
4.25,97.49,9.793,99.188,-0.0238079
4.35,99.43,9.789,99.143,-0.0244667
4.45,101.36,9.784,99.096,-0.0231642
4.54,103.29,9.779,99.044,-0.0207236
4.64,105.22,9.775,99.002,-0.0229106
4.74,107.16,9.770,98.955,-0.0259523
4.83,109.09,9.766,98.909,-0.0256956
4.93,111.02,9.761,98.863,-0.0244646
5.03,112.95,9.756,98.817,-0.0225159
5.12,114.88,9.752,98.773,-0.0240588
5.22,116.81,9.748,98.730,-0.0192321
5.32,118.75,9.744,98.690,-0.0208205
5.41,120.68,9.740,98.653,-0.0275783
5.51,122.61,9.737,98.616,-0.0172394
5.61,124.54,9.733,98.585,-0.0142465
5.70,126.47,9.731,98.555,-0.0142917
5.80,128.41,9.728,98.529,-0.0108920
5.90,130.34,9.726,98.507,-7.81035e-3
5.99,132.27,9.724,98.487,-6.73230e-3
6.09,134.20,9.722,98.468,-0.0111376
6.19,136.13,9.721,98.456,-6.78375e-3
6.28,138.06,9.720,98.444,-6.30360e-3
6.38,139.99,9.718,98.432,-3.93809e-3
6.48,141.93,9.717,98.420,-3.30016e-3
6.57,143.85,9.716,98.409,-1.35280e-3
6.67,145.79,9.715,98.399,-2.08456e-3
6.77,147.72,9.714,98.391,-4.16913e-3
6.86,149.65,9.713,98.382,-5.93298e-3
6.96,151.58,9.713,98.373,-4.10250e-3
7.06,153.51,9.712,98.365,-3.16224e-3
7.15,155.44,9.711,98.357,-4.05553e-3
7.25,157.37,9.710,98.349,-5.63626e-3
7.35,159.31,9.709,98.340,-4.81168e-4
7.44,161.24,9.708,98.330,-9.28173e-3
7.54,163.17,9.708,98.325,-3.59680e-3
7.64,165.10,9.707,98.317,-4.74118e-3
7.73,167.03,9.706,98.309,-8.47654e-3
7.83,168.96,9.706,98.302,-4.63515e-3
7.93,170.89,9.705,98.294,-4.44386e-3
8.02,172.82,9.704,98.289,-4.26066e-3
8.12,174.75,9.704,98.283,-4.69863e-3
8.22,176.69,9.703,98.277,-8.24553e-4
8.31,178.62,9.702,98.269,-3.32036e-3
8.41,180.55,9.702,98.264,-4.26254e-3
8.51,182.48,9.701,98.254,-7.32869e-3
8.60,184.41,9.700,98.245,-2.77081e-3
8.70,186.35,9.699,98.240,-4.42052e-3
8.80,188.28,9.699,98.233,-4.87790e-3
8.89,190.21,9.698,98.224,-5.97801e-3
8.99,192.14,9.697,98.215,-2.88627e-3
9.09,194.07,9.696,98.207,-4.81210e-3
9.18,196.00,9.695,98.199,-1.57972e-3
9.28,197.94,9.695,98.192,4.76582e-3
9.38,199.87,9.694,98.188,-2.83922e-3
9.47,201.80,9.694,98.181,-3.87340e-3
9.57,203.73,9.693,98.175,-2.59087e-3
9.67,205.66,9.692,98.167,-5.99738e-3
9.76,207.59,9.691,98.158,-2.06303e-3
9.86,209.53,9.691,98.150,-5.61101e-3
9.96,211.46,9.690,98.142,-5.93036e-3
10.05,213.39,9.689,98.134,-3.00095e-3
10.15,215.32,9.688,98.125,-4.12048e-3
10.25,217.25,9.687,98.117,-4.30600e-3
10.34,219.19,9.686,98.108,-4.99154e-3
10.44,221.12,9.686,98.100,-2.29095e-3
10.54,223.05,9.685,98.091,-6.25082e-3
10.63,224.98,9.684,98.083,-6.82548e-3
10.73,226.91,9.683,98.075,-3.82542e-3
10.83,228.85,9.682,98.067,-3.13788e-3
10.92,230.78,9.682,98.059,-3.71033e-3
11.02,232.71,9.681,98.052,-4.92703e-3
11.12,234.64,9.680,98.042,-6.56986e-3
11.21,236.57,9.679,98.034,-3.57253e-3
11.31,238.51,9.678,98.025,-2.33573e-3
11.41,240.44,9.678,98.018,-7.25637e-3
11.50,242.37,9.677,98.010,-6.55362e-3
11.60,244.30,9.676,98.003,-5.56618e-3
11.70,246.24,9.675,97.996,-6.54762e-3
11.79,248.17,9.675,97.988,-4.71786e-3
11.89,250.10,9.674,97.980,-4.25940e-3
11.99,252.03,9.673,97.974,-7.72048e-3
12.08,253.96,9.672,97.967,-4.92149e-3
12.18,255.90,9.672,97.961,-4.69602e-3
12.28,257.83,9.671,97.955,-3.11495e-3
12.37,259.76,9.671,97.949,-3.64110e-3
12.47,261.69,9.670,97.944,-3.59525e-3
12.57,263.63,9.670,97.939,-2.08431e-3
12.66,265.56,9.669,97.936,-2.70256e-3
12.76,267.49,9.669,97.932,-1.55802e-3
12.86,269.42,9.669,97.928,-3.16374e-3
12.95,271.35,9.668,97.924,-6.38440e-3
13.05,273.29,9.668,97.923,2.17469e-3
13.15,275.22,9.668,97.922,-3.79689e-3
13.24,277.15,9.668,97.918,9.61761e-4
13.34,279.08,9.667,97.914,-3.38900e-3
13.44,281.02,9.667,97.908,-3.41117e-3
13.53,282.95,9.666,97.902,-4.37747e-3
13.63,284.88,9.665,97.893,-1.85440e-3
13.73,286.81,9.664,97.884,-3.75708e-3
13.82,288.74,9.664,97.877,-3.09208e-3
13.92,290.68,9.662,97.862,-0.0118992
14.02,292.61,9.662,97.859,-3.66477e-4
14.11,294.54,9.661,97.850,-3.13614e-3
14.21,296.48,9.660,97.842,-6.20712e-3
14.31,298.41,9.660,97.837,-2.35881e-3
14.40,300.34,9.659,97.828,-7.12198e-3
14.50,302.27,9.658,97.821,-1.96924e-3
14.60,304.20,9.658,97.816,-2.54354e-3
14.69,306.14,9.657,97.808,-3.54990e-3
14.79,308.07,9.656,97.800,-3.73064e-3
14.89,310.00,9.655,97.790,-0.0106742
14.98,311.93,9.654,97.783,-8.80852e-8
15.08,313.87,9.654,97.775,-7.64855e-3
15.18,315.80,9.653,97.766,-2.67929e-3
15.27,317.73,9.652,97.758,-4.90139e-3
15.37,319.66,9.651,97.746,-7.02963e-3
15.47,321.60,9.649,97.733,-7.39324e-3
15.56,323.53,9.648,97.722,-5.24846e-3
15.66,325.46,9.647,97.708,-7.00736e-3
15.76,327.39,9.646,97.694,-4.76372e-3
15.85,329.32,9.644,97.680,-5.65327e-3
15.95,331.26,9.643,97.664,-0.0100102
16.05,333.19,9.641,97.645,-9.77822e-3
16.14,335.12,9.639,97.625,-0.0101686
16.24,337.05,9.637,97.603,-0.0123936
16.34,338.99,9.634,97.578,-0.0130543
16.43,340.92,9.631,97.550,-0.0128926
16.53,342.85,9.628,97.521,-0.0150967
16.63,344.78,9.625,97.486,-0.0192238
16.72,346.71,9.621,97.449,-0.0225152
16.82,348.65,9.617,97.404,-0.0221841
16.92,350.58,9.612,97.352,-0.0297700
17.01,352.51,9.605,97.287,-0.0364473
17.11,354.44,9.598,97.211,-0.0391462
17.21,356.38,9.586,97.092,-0.0475040
17.30,358.31,9.569,96.924,-0.125745
17.40,360.24,9.538,96.603,-0.390957
17.50,362.17,9.515,96.369,-0.164704
17.59,364.11,9.479,96.009,-0.271832
17.69,366.04,9.439,95.598,-0.169805
17.79,367.97,9.392,95.129,-0.260691
17.88,369.91,9.339,94.585,-0.300885
17.98,371.84,9.279,93.979,-0.513646
18.08,373.77,9.211,93.293,-0.278892
18.17,375.70,9.138,92.554,-0.413484
18.27,377.64,9.056,91.721,-0.874104
18.37,379.57,8.972,90.874,-0.349908
18.46,381.50,8.876,89.903,-0.486790
18.56,383.43,8.778,88.903,-0.479656
18.66,385.37,8.669,87.806,-0.451879
18.75,387.30,8.553,86.623,-0.642737
18.85,389.23,8.429,85.369,-0.442736
18.95,391.16,8.293,83.996,-0.733285
19.04,393.09,8.149,82.536,-0.614957
19.14,395.03,7.997,80.999,-1.26436
19.24,396.96,7.843,79.438,-1.03638
19.33,398.89,7.683,77.815,-1.10900
19.43,400.82,7.526,76.222,-0.391268
19.53,402.76,7.362,74.568,-0.875248
19.62,404.69,7.208,73.007,-0.888918
19.72,406.62,7.049,71.394,-0.417369
19.82,408.55,6.914,70.032,-0.663966
19.91,410.48,6.778,68.647,-0.496085
20.01,412.41,6.650,67.350,-0.515228
20.11,414.34,6.534,66.176,-0.358066
20.20,416.27,6.432,65.147,-0.0747830
20.30,418.21,6.351,64.326,-0.109876
20.40,420.14,6.283,63.642,-0.193674
20.49,422.07,6.240,63.197,-0.124541
20.59,424.00,6.216,62.963,-0.0941338
20.69,425.93,6.194,62.739,-0.176379
20.78,427.87,6.177,62.560,-0.124244
20.88,429.80,6.160,62.391,-0.0226846
20.98,431.73,6.143,62.224,-0.0690896
21.07,433.66,6.128,62.066,-0.0728239
21.17,435.59,6.114,61.927,-0.0666850
21.27,437.52,6.102,61.808,-0.0430683
21.36,439.46,6.089,61.676,-0.0318598
21.46,441.39,6.080,61.579,-0.0454469
21.56,443.32,6.071,61.490,-0.0355980
21.65,445.25,6.062,61.394,-0.187088
21.75,447.18,6.053,61.309,-0.0244157
21.85,449.11,6.046,61.232,-0.0312529
21.94,451.04,6.039,61.161,-0.0563536
22.04,452.98,6.031,61.083,-0.0280513
22.14,454.91,6.024,61.014,-0.0282575
22.23,456.84,6.016,60.930,-0.0320464
22.33,458.77,6.008,60.852,-0.0488623
22.43,460.70,6.002,60.788,-0.0275424
22.52,462.64,5.993,60.702,-0.0310610
22.62,464.57,5.985,60.622,-0.0368301
22.72,466.50,5.977,60.542,-0.0347159
22.81,468.43,5.968,60.451,-0.0546811
22.91,470.36,5.955,60.314,-0.0722430
23.01,472.29,5.944,60.208,-0.0637578
23.10,474.23,5.931,60.072,-0.0237404
23.20,476.16,5.914,59.904,-0.0575237
23.30,478.09,5.898,59.742,-0.0583089
23.39,480.02,5.876,59.516,-0.0660976
23.49,481.95,5.855,59.305,-0.117875
23.59,483.88,5.829,59.036,-0.0629927
23.68,485.81,5.808,58.827,-0.0666284
23.78,487.74,5.790,58.646,-0.0368349
23.88,489.67,5.780,58.540,-0.0455600
23.97,491.60,5.774,58.477,-0.0271674
24.07,493.53,5.765,58.391,-0.0379172
24.17,495.46,5.759,58.325,-0.0190701
24.26,497.39,5.752,58.258,-0.0207418
24.36,499.32,5.744,58.175,-0.0238974
24.46,501.25,5.736,58.101,-0.0239718
24.55,503.18,5.728,58.019,-0.0221648
24.65,505.11,5.719,57.921,-0.0410860
24.75,507.04,5.710,57.836,-0.0351445
24.84,508.97,5.699,57.720,-0.0261186
24.94,510.90,5.302,53.698,35.0869
25.04,512.81,5.654,57.263,0.876479
25.13,514.74,5.639,57.111,1.41176
25.23,516.67,5.631,57.033,-0.0860501
25.33,518.61,5.610,56.822,-0.135372
25.42,520.55,5.586,56.573,-0.218693
25.52,522.49,5.557,56.283,-0.277571
25.62,524.42,5.518,55.888,-0.178939
25.71,526.35,5.480,55.508,-0.212832
25.81,528.29,5.443,55.131,-0.229417
25.91,530.22,5.398,54.671,-0.178845
26.00,532.15,5.350,54.192,-0.624243
26.10,534.08,5.306,53.745,-0.177716
26.12,534.45,5.294,53.622,-0.368990